Wavenumber,Intensities
282.29,12974.6
284.39,12796.33
286.49,12484.4
288.59,12576.0
290.7,12154.27
292.79,12091.6
294.89,11806.4
296.99,12084.0
299.09,11991.87
301.18,11554.13
303.28,11671.47
305.37,11578.47
307.47,11792.47
309.56,11578.2
311.65,11286.2
313.74,11044.53
315.83,11180.8
317.92,11249.47
320.0,11245.13
322.09,11160.73
324.18,10987.27
326.26,11460.6
328.34,11064.2
330.43,11296.8
332.51,11112.27
334.59,11032.73
336.67,11107.33
338.75,11092.0
340.83,11044.8
342.9,11191.2
344.98,11034.6
347.05,11038.53
349.13,11205.13
351.2,11287.2
353.27,11242.6
355.35,11183.13
357.42,11192.0
359.49,11263.93
361.55,11620.8
363.62,11249.4
365.69,11448.53
367.75,11330.47
369.82,11494.07
371.88,11433.2
373.95,11650.13
376.01,11419.87
378.07,11458.4
380.13,11485.6
382.19,11275.93
384.25,11167.4
386.31,11461.0
388.36,11693.53
390.42,11070.13
392.47,11658.47
394.53,11372.93
396.58,11570.87
398.63,11702.93
400.68,11240.2
402.73,11251.0
404.78,11305.87
406.83,11505.67
408.87,11506.8
410.92,11436.13
412.97,11715.6
415.01,11540.8
417.05,11641.93
419.1,11402.0
421.14,11735.0
423.18,11725.47
425.22,11680.8
427.25,11785.27
429.29,11680.73
431.33,11645.4
433.36,11854.0
435.4,11991.0
437.43,11785.27
439.47,11534.27
441.5,11703.8
443.53,11331.67
445.56,11601.13
447.59,11786.2
449.62,11343.4
451.64,11540.53
453.67,11475.73
455.7,11632.73
457.72,11558.73
459.74,11526.87
461.77,11076.13
463.79,11597.87
465.81,11564.4
467.83,11344.53
469.85,11219.2
471.86,10863.4
473.88,11274.0
475.9,11368.73
477.91,11166.67
479.93,11041.07
481.94,11026.53
483.95,11157.6
485.96,11050.8
487.97,11177.8
489.98,10849.73
491.99,10767.93
494.0,11088.73
496.0,10954.33
498.01,10509.2
500.01,10343.27
502.02,10495.6
504.02,10271.67
506.02,10045.73
508.02,9872.0
510.02,10092.53
512.02,9982.2
514.02,9783.07
516.01,10082.33
518.01,10023.8
520.01,9507.87
522.0,9823.27
523.99,9588.8
525.99,9484.53
527.98,9462.4
529.97,9589.13
531.96,9326.53
533.94,9262.73
535.93,9346.33
537.92,9231.27
539.9,9149.27
541.89,9398.13
543.87,9164.67
545.85,9240.8
547.84,9175.07
549.82,8902.27
551.8,9170.8
553.78,9190.13
555.75,9068.47
557.73,8955.87
559.71,8956.6
561.68,9045.2
563.66,8876.53
565.63,9170.07
567.6,8600.0
569.57,8448.73
571.54,8790.0
573.51,8792.07
575.48,8568.33
577.45,8690.13
579.41,8676.07
581.38,8554.4
583.34,8360.2
585.31,8528.13
587.27,8408.93
589.23,8527.13
591.19,8572.8
593.15,8524.53
595.11,8548.33
597.07,8349.47
599.03,8512.67
600.98,8494.4
602.94,8917.0
604.89,8386.4
606.84,8395.87
608.8,8304.73
610.75,8193.33
612.7,8399.73
614.65,8136.87
616.6,8011.33
618.54,8000.07
620.49,8219.27
622.43,8174.8
624.38,7959.73
626.32,7721.87
628.27,7889.4
630.21,7867.87
632.15,7664.87
634.09,7920.6
636.03,8048.87
637.96,8017.4
639.9,8147.47
641.84,7955.73
643.77,7963.73
645.71,7855.07
647.64,7984.13
649.57,7719.13
651.5,7962.4
653.43,7844.67
655.36,7908.47
657.29,7837.73
659.22,7790.13
661.14,7965.87
663.07,7546.53
664.99,7746.6
666.92,7600.47
668.84,7665.13
670.76,7330.07
672.68,7493.6
674.6,7490.0
676.52,7566.93
678.44,7535.73
680.35,7430.67
682.27,7353.6
684.19,7198.13
686.1,7630.13
688.01,7481.4
689.92,7454.13
691.83,7321.8
693.74,7426.33
695.65,7499.13
697.56,7195.2
699.47,7381.33
701.38,7571.07
703.28,7202.27
705.19,7452.93
707.09,7725.27
708.99,7136.2
710.89,7635.6
712.79,7197.47
714.69,7103.87
716.59,7023.6
718.49,6968.47
720.39,7252.73
722.28,7071.8
724.18,7174.87
726.07,7195.27
727.96,6903.4
729.85,7114.6
731.74,6943.67
733.63,6826.33
735.52,6771.67
737.41,6995.4
739.3,6945.33
741.18,7166.67
743.07,7017.13
744.95,6665.8
746.84,7110.73
748.72,6849.93
750.6,6655.8
752.48,6708.2
754.36,6872.67
756.24,7036.47
758.12,6903.0
759.99,6777.6
761.87,6801.4
763.74,7079.93
765.62,6826.53
767.49,7010.4
769.36,6609.73
771.23,7081.8
773.1,6580.47
774.97,6539.87
776.84,6757.6
778.7,6450.27
780.57,6587.33
782.44,6430.07
784.3,6828.2
786.16,6818.07
788.02,6533.53
789.89,6752.2
791.75,6458.2
793.6,6612.07
795.46,6555.2
797.32,6545.47
799.18,6561.2
801.03,6530.47
802.89,6504.13
804.74,6683.8
806.59,6451.87
808.44,6734.13
810.29,6529.6
812.14,6376.4
813.99,6386.33
815.84,6289.87
817.69,6418.33
819.53,6358.73
821.38,6513.2
823.22,6636.0
825.06,6333.4
826.9,6216.53
828.75,6152.0
830.59,6226.93
832.42,6082.73
834.26,6098.2
836.1,6226.4
837.93,6439.93
839.77,6187.8
841.6,5919.13
843.44,5998.0
845.27,6166.8
847.1,6127.07
848.93,6038.33
850.76,6016.6
852.59,5868.73
854.42,6033.53
856.24,6043.07
858.07,5681.53
859.89,5824.13
861.72,5620.73
863.54,5687.6
865.36,5746.07
867.18,5448.87
869.0,5728.73
870.82,5653.13
872.64,5689.47
874.45,5648.2
876.27,5607.93
878.08,5593.0
879.9,5632.47
881.71,5430.47
883.52,5306.6
885.33,5327.87
887.14,5212.6
888.95,5400.87
890.76,5146.33
892.57,5241.53
894.37,5284.6
896.18,5163.6
897.98,5460.47
899.79,5539.8
901.59,5219.27
903.39,5348.2
905.19,5188.33
906.99,4845.87
908.79,5016.67
910.58,5054.8
912.38,4936.07
914.18,6004.13
915.97,5023.53
917.76,4995.8
919.56,4929.33
921.35,4845.47
923.14,4813.07
924.93,4907.07
926.72,5093.93
928.51,5098.93
930.29,4780.93
932.08,5289.67
933.86,4940.27
935.65,4731.33
937.43,4852.87
939.21,4510.07
940.99,4831.8
942.77,4795.07
944.55,4416.33
946.33,4677.8
948.11,5022.53
949.88,4853.0
951.66,4529.13
953.43,4815.87
955.21,4698.2
956.98,4756.33
958.75,4703.87
960.52,4518.4
962.29,5101.33
964.06,4421.47
965.82,4555.2
967.59,4443.67
969.36,4236.27
971.12,4752.87
972.88,4407.8
974.65,4510.47
976.41,4435.07
978.17,4256.2
979.93,4464.2
981.69,4634.67
983.45,4522.2
985.2,4641.4
986.96,4566.73
988.71,4701.47
990.47,4479.8
992.22,4514.53
993.97,4531.33
995.72,4555.0
997.47,4530.53
999.22,4767.53
1000.97,4655.93
1002.72,4851.6
1004.46,4845.13
1006.21,4160.6
1007.95,4479.6
1009.7,4429.4
1011.44,4448.87
1013.18,4342.0
1014.92,4480.27
1016.66,4329.0
1018.4,4341.27
1020.13,4504.0
1021.87,4251.8
1023.61,4612.4
1025.34,4443.73
1027.07,4285.67
1028.81,4318.53
1030.54,4309.47
1032.27,3985.53
1034.0,4478.8
1035.73,4196.27
1037.46,4140.67
1039.18,4521.6
1040.91,4249.8
1042.63,4148.2
1044.36,4408.4
1046.08,4289.33
1047.8,4146.53
1049.52,4294.07
1051.24,4403.73
1052.96,4264.67
1054.68,4317.8
1056.4,4148.33
1058.11,4304.2
1059.83,4439.87
1061.54,4206.67
1063.26,4718.27
1064.97,4219.0
1066.68,4502.73
1068.39,4161.4
1070.1,4187.33
1071.81,4239.53
1073.51,4097.67
1075.22,4134.4
1076.93,4066.6
1078.63,4335.87
1080.33,4497.27
1082.04,4205.8
1083.74,4169.67
1085.44,4106.07
1087.14,4216.87
1088.84,4226.4
1090.53,4109.87
1092.23,4013.0
1093.93,3861.4
1095.62,3910.6
1097.32,4026.93
1099.01,4210.27
1100.7,3949.33
1102.39,4009.8
1104.08,4068.53
1105.77,4198.87
1107.46,3929.4
1109.15,3917.33
1110.83,4022.27
1112.52,3976.33
1114.2,4142.67
1115.88,4088.67
1117.57,3991.07
1119.25,3716.0
1120.93,3940.8
1122.61,4014.53
1124.28,4195.2
1125.96,3857.07
1127.64,3980.13
1129.31,4060.2
1130.99,3889.13
1132.66,3746.67
1134.33,3787.07
1136.01,3782.8
1137.68,3661.87
1139.35,4162.13
1141.01,4516.87
1142.68,3692.87
1144.35,3930.47
1146.01,3758.47
1147.68,4071.27
1149.34,3987.47
1151.01,3903.07
1152.67,3649.27
1154.33,3991.6
1155.99,4174.13
1157.65,3767.27
1159.3,3950.87
1160.96,3882.33
1162.62,3878.67
1164.27,3962.07
1165.93,3939.8
1167.58,3880.47
1169.23,3907.4
1170.88,3594.87
1172.53,3871.07
1174.18,3945.27
1175.83,3779.13
1177.48,3817.73
1179.12,3681.07
1180.77,3487.87
1182.41,3528.2
1184.06,3886.4
1185.7,3887.07
1187.34,3636.67
1188.98,3824.07
1190.62,3905.4
1192.26,3888.6
1193.9,3769.0
1195.53,3600.73
1197.17,3742.73
1198.8,3636.6
1200.44,3938.67
1202.07,3872.53
1203.7,3930.27
1205.33,3994.0
1206.96,3706.93
1208.59,3929.8
1210.22,3792.4
1211.85,3662.27
1213.47,3498.0
1215.1,3734.2
1216.72,3816.33
1218.34,3719.67
1219.96,3685.67
1221.59,3802.2
1223.21,3923.73
1224.83,3879.47
1226.44,3450.13
1228.06,3755.53
1229.68,3725.2
1231.29,3781.33
1232.91,3763.53
1234.52,3983.73
1236.13,3822.6
1237.74,3718.47
1239.35,3581.87
1240.96,3862.67
1242.57,3519.67
1244.18,3704.2
1245.78,3820.87
1247.39,3860.33
1248.99,3595.87
1250.6,3750.8
1252.2,3831.47
1253.8,3754.6
1255.4,3783.73
1257.0,3635.2
1258.6,4021.33
1260.2,3781.07
1261.8,3650.8
1263.39,3543.87
1264.99,3515.07
1266.58,3589.73
1268.17,3615.07
1269.77,3756.6
1271.36,3698.4
1272.95,3708.4
1274.54,3806.73
1276.12,3634.07
1277.71,3364.07
1279.3,3496.4
1280.88,3620.33
1282.47,3564.2
1284.05,3746.4
1285.63,3421.8
1287.21,3536.2
1288.79,3505.13
1290.37,3591.47
1291.95,3674.73
1293.53,3347.2
1295.1,3585.33
1296.68,3403.0
1298.25,3517.47
1299.83,3705.27
1301.4,3381.87
1302.97,3802.13
1304.54,3293.33
1306.11,3569.2
1307.68,3561.33
1309.25,3206.93
1310.81,3814.33
1312.38,3396.07
1313.94,3685.07
1315.51,3204.93
1317.07,3423.87
1318.63,3636.13
1320.19,3587.73
1321.75,3579.0
1323.31,3542.13
1324.87,3534.53
1326.43,3389.13
1327.98,3492.47
1329.54,3398.8
1331.09,3733.67
1332.64,3535.87
1334.2,3471.73
1335.75,3551.6
1337.3,3371.47
1338.85,3542.13
1340.4,3409.2
1341.94,3329.6
1343.49,3427.73
1345.03,3319.07
1346.58,3148.87
1348.12,3347.67
1349.66,2992.4
1351.21,3431.33
1352.75,3188.2
1354.29,3234.87
1355.82,3057.47
1357.36,3248.27
1358.9,3361.87
1360.43,3182.2
1361.97,3438.27
1363.5,3155.73
1365.03,3193.6
1366.57,3407.87
1368.1,3342.13
1369.63,2977.07
1371.16,3185.13
1372.68,3147.07
1374.21,3080.73
1375.74,2902.0
1377.26,3174.53
1378.78,3033.67
1380.31,3306.27
1381.83,3222.6
1383.35,3478.53
1384.87,3243.73
1386.39,3074.93
1387.91,3295.87
1389.42,3143.47
1390.94,3107.87
1392.46,3145.53
1393.97,2997.13
1395.48,2978.67
1397.0,3231.13
1398.51,3240.87
1400.02,3060.0
1401.53,2933.2
1403.04,3398.6
1404.54,2931.27
1406.05,2939.6
1407.55,3115.33
1409.06,3160.53
1410.56,2995.47
1412.06,3137.2
1413.57,3060.27
1415.07,2845.8
1416.57,2971.07
1418.07,3298.4
1419.56,3246.13
1421.06,3179.0
1422.56,3143.07
1424.05,3012.8
1425.54,3020.47
1427.04,3077.67
1428.53,2811.47
1430.02,3350.27
1431.51,3145.47
1433.0,3077.27
1434.49,3001.13
1435.97,3094.0
1437.46,3073.13
1438.94,3073.2
1440.43,3221.27
1441.91,3048.67
1443.39,3010.8
1444.88,3040.87
1446.36,3018.07
1447.83,3111.07
1449.31,2985.33
1450.79,3051.53
1452.27,3421.8
1453.74,2968.53
1455.22,3261.87
1456.69,2857.67
1458.16,2998.27
1459.63,2894.8
1461.1,3050.33
1462.57,3067.47
1464.04,3280.0
1465.51,3166.6
1466.98,2880.4
1468.44,2940.6
1469.91,3147.13
1471.37,2924.27
1472.83,2883.47
1474.3,3058.0
1475.76,2918.2
1477.22,3141.4
1478.67,2825.33
1480.13,2891.2
1481.59,2918.47
1483.05,2844.53
1484.5,3015.73
1485.95,2886.07
1487.41,2859.93
1488.86,3209.13
1490.31,2638.07
1491.76,2871.0
1493.21,3062.4
1494.66,2673.2
1496.11,2655.4
1497.55,2736.2
1499.0,2607.87
1500.44,2486.53
1501.88,2492.4
1503.33,2703.13
1504.77,2935.4
1506.21,2843.8
1507.65,2951.33
1509.09,2751.93
1510.52,2684.2
1511.96,2840.33
1513.4,2912.4
1514.83,2856.87
1516.26,2940.87
1517.7,2865.33
1519.13,2681.0
1520.56,2763.07
1521.99,2739.53
1523.42,2885.6
1524.85,2791.33
1526.27,3068.27
1527.7,2742.8
1529.12,2693.8
1530.55,2998.6
1531.97,2920.4
1533.39,2995.4
1534.81,2737.47
1536.23,2731.6
1537.65,2965.33
1539.07,2832.6
1540.49,2768.13
1541.9,2852.6
1543.32,3197.2
1544.73,2913.67
1546.15,2903.47
1547.56,2884.73
1548.97,2994.0
1550.38,3106.4
1551.79,3111.47
1553.2,2953.27
1554.61,3099.0
1556.01,2928.47
1557.42,3011.47
1558.82,2912.87
1560.22,2969.93
1561.63,2891.6
1563.03,2997.8
1564.43,2883.73
1565.83,2897.87
1567.23,3279.2
1568.63,2727.53
1570.02,3045.33
1571.42,3133.13
1572.81,3084.73
1574.21,3188.67
1575.6,3395.13
1576.99,3299.47
1578.38,3196.67
1579.77,3117.73
1581.16,3440.6
1582.55,3494.2
1583.94,3013.93
1585.32,3266.33
1586.71,3264.13
1588.09,3039.27
1589.47,3686.53
1590.86,3289.13
1592.24,3456.6
1593.62,3401.2
1595.0,3541.87
1596.38,3241.13
1597.75,4171.13
1599.13,3488.73
1600.51,3374.13
1601.88,3763.0
1603.25,3700.0
1604.63,3606.53
1606.0,3343.6
1607.37,3421.13
1608.74,3621.53
1610.11,3676.13
1611.47,3599.27
1612.84,3938.4
1614.21,3943.47
1615.57,3685.0
1616.93,3583.33
1618.3,4049.6
1619.66,3797.13
1621.02,3522.73
1622.38,3742.0
1623.74,3942.8
1625.1,4003.27
1626.45,3604.67
1627.81,3796.67
1629.16,3540.73
1630.52,3829.53
1631.87,3657.13
1633.22,3795.93
1634.57,3901.73
1635.92,3779.0
1637.27,3955.07
1638.62,4131.93
1639.97,3891.8
1641.32,3989.67
1642.66,3891.2
1644.01,3627.47
1645.35,3907.33
1646.69,3605.73
1648.03,3816.33
1649.37,3874.93
1650.71,3926.73
1652.05,3977.33
1653.39,3922.93
1654.73,3890.73
1656.06,3764.67
1657.4,3732.4
1658.73,3556.6
1660.06,3838.27
1661.39,3607.53
1662.72,3923.27
1664.05,3611.87
1665.38,3817.4
1666.71,3580.0
1668.04,3215.93
1669.36,3410.0
1670.69,3756.27
1672.01,3468.93
1673.34,3500.0
1674.66,3402.8
1675.98,3269.07
1677.3,3530.0
1678.62,3103.13
1679.94,3243.67
1681.25,3195.33
1682.57,3128.07
1683.88,3272.07
1685.2,2877.67
1686.51,3131.6
1687.82,3073.47
1689.14,2617.73
1690.45,3229.27
1691.76,2856.33
1693.06,2915.93
1694.37,2890.2
1695.68,2730.87
1696.98,2942.8
1698.29,3127.87
1699.59,2709.87
1700.89,2628.87
1702.2,2636.13
1703.5,2731.4
1704.8,2455.67
1706.1,2598.8
1707.39,2573.6
1708.69,2710.73
1709.99,2217.33
1711.28,2430.47
1712.57,2436.33
1713.87,2614.53
1715.16,2338.73
1716.45,2189.47
1717.74,2223.47
1719.03,2486.33
1720.32,2624.67
1721.6,2279.2
1722.89,2528.33
1724.18,2162.4
1725.46,2106.33
1726.74,2291.2
1728.03,2368.67
1729.31,2148.6
1730.59,2367.87
1731.87,2188.6
1733.15,2120.87
1734.42,2001.53
1735.7,2114.0
1736.97,2142.47
1738.25,2225.07
1739.52,2052.27
1740.79,2158.53
1742.07,2127.47
1743.34,2175.0
1744.61,2023.2
1745.88,1996.73
1747.14,2076.87
1748.41,2075.73
1749.68,2064.6
1750.94,2203.4
1752.2,2005.47
1753.47,2064.93
1754.73,1759.33
1755.99,1869.27
1757.25,1918.67
1758.51,1845.4
1759.77,2140.73
1761.02,1847.13
1762.28,2196.67
1763.54,2003.47
1764.79,2078.8
1766.04,1965.47
1767.29,1827.87
1768.55,1988.13
1769.8,1912.4
1771.05,2179.67
1772.29,1781.2
1773.54,1889.27
1774.79,1930.4
1776.03,2066.6
1777.28,2061.93
1778.52,1984.47
1779.76,1688.93
1781.01,2031.6
1782.25,1752.07
1783.49,1694.47
1784.72,1991.4
1785.96,1906.07
1787.2,1897.93
1788.43,1692.33
1789.67,2105.6
1790.9,1897.73
1792.14,1895.2
1793.37,2133.4
1794.6,2035.33
1795.83,1955.07
1797.06,1761.07
1798.28,1776.07
1799.51,1849.73
1800.74,1890.6
1801.96,1798.4
1803.19,1852.67
1804.41,1774.47
1805.63,2190.47
1806.85,2043.27
1808.07,1911.07
1809.29,1956.2
1810.51,1862.13
1811.73,1800.07
1812.94,1438.0
1814.16,1833.8
1815.37,1641.27
1816.59,1718.27
1817.8,1851.13
1819.01,1914.53
1820.22,1715.53
1821.43,1856.53
1822.64,1881.13
1823.85,1712.0
1825.05,1629.33
1826.26,1815.33
1827.46,1828.87
1828.67,1642.87
1829.87,1690.73
1831.07,1727.6
1832.27,1719.2
1833.47,1688.13
1834.67,1840.13
1835.87,1644.93
1837.07,1741.27
1838.26,1881.13
1839.46,2022.27
1840.65,1831.13
1841.85,1760.67
1843.04,1869.27
1844.23,2093.6
1845.42,1775.33
1846.61,1856.4
1847.8,1863.13
1848.98,1769.07
1850.17,1628.0
1851.35,1924.8
1852.54,1729.2
1853.72,1841.07
1854.9,1787.47
1856.09,1985.8
1857.27,1892.93
1858.45,1634.6
1859.62,1727.2
1860.8,1839.67
1861.98,2108.33
1863.15,1739.87
1864.33,1774.53
1865.5,1857.6
1866.68,1592.0
1867.85,1762.33
1869.02,1581.47
1870.19,2119.0
1871.36,1676.87
1872.52,1644.4
1873.69,1593.67
1874.86,1630.6
1876.02,1784.13
1877.19,1597.8
1878.35,1534.0
1879.51,1642.8
1880.67,1792.67
1881.83,1678.27
1882.99,1781.67
1884.15,1490.47
1885.31,1600.07
1886.46,1630.67
1887.62,1763.93
1888.77,1499.33
1889.92,1361.73
1891.08,1387.8
1892.23,2005.67
1893.38,1487.13
