Wavenumber,Intensities
282.29,15258.4
284.39,15104.73
286.49,14776.0
288.59,14875.6
290.7,14463.67
292.79,14374.0
294.89,14062.4
296.99,14306.0
299.09,14259.27
301.18,13786.93
303.28,13961.47
305.37,13805.07
307.47,13998.67
309.56,13818.4
311.65,13518.6
313.74,13308.93
315.83,13401.8
317.92,13499.07
320.0,13451.93
322.09,13419.13
324.18,13211.47
326.26,13715.2
328.34,13331.4
330.43,13553.8
332.51,13355.87
334.59,13248.73
336.67,13361.93
338.75,13314.8
340.83,13299.6
342.9,13468.6
344.98,13273.2
347.05,13299.73
349.13,13425.93
351.2,13493.0
353.27,13479.8
355.35,13390.13
357.42,13435.4
359.49,13464.33
361.55,13860.2
363.62,13439.6
365.69,13603.73
367.75,13499.07
369.82,13625.47
371.88,13608.4
373.95,13785.53
376.01,13560.67
378.07,13605.8
380.13,13571.2
382.19,13399.33
384.25,13314.2
386.31,13566.6
388.36,13835.93
390.42,13177.93
392.47,13859.87
394.53,13542.33
396.58,13678.87
398.63,13798.93
400.68,13373.8
402.73,13343.8
404.78,13438.47
406.83,13650.47
408.87,13620.4
410.92,13607.13
412.97,13853.2
415.01,13662.0
417.05,13775.53
419.1,13594.0
421.14,13888.2
423.18,13873.67
425.22,13850.2
427.25,13904.87
429.29,13802.53
431.33,13791.6
433.36,13952.2
435.4,14137.8
437.43,13868.67
439.47,13708.67
441.5,13895.4
443.53,13454.87
445.56,13763.93
447.59,13887.0
449.62,13406.2
451.64,13660.13
453.67,13581.53
455.7,13676.93
457.72,13586.33
459.74,13621.07
461.77,13167.53
463.79,13573.07
465.81,13621.0
467.83,13365.33
469.85,13265.4
471.86,12843.0
473.88,13270.4
475.9,13301.33
477.91,13093.67
479.93,12986.47
481.94,12997.33
483.95,13107.2
485.96,13050.4
487.97,13120.0
489.98,12785.53
491.99,12741.33
494.0,13024.53
496.0,12823.93
498.01,12336.2
500.01,12133.67
502.02,12298.4
504.02,12121.27
506.02,11771.73
508.02,11620.8
510.02,11811.93
512.02,11663.4
514.02,11438.27
516.01,11729.13
518.01,11660.8
520.01,11177.47
522.0,11505.87
523.99,11217.0
525.99,11121.93
527.98,11088.0
529.97,11245.93
531.96,10991.13
533.94,10855.53
535.93,10923.93
537.92,10845.07
539.9,10777.27
541.89,11021.93
543.87,10724.47
545.85,10783.8
547.84,10743.47
549.82,10424.07
551.8,10707.8
553.78,10756.73
555.75,10592.07
557.73,10527.67
559.71,10511.6
561.68,10579.2
563.66,10469.13
565.63,10662.27
567.6,10101.4
569.57,9979.53
571.54,10280.4
573.51,10294.67
575.48,10050.53
577.45,10159.13
579.41,10150.27
581.38,10038.2
583.34,9812.0
585.31,10042.33
587.27,9849.93
589.23,9989.73
591.19,10006.6
593.15,9945.13
595.11,9974.73
597.07,9757.47
599.03,9940.27
600.98,9952.6
602.94,10378.4
604.89,9802.2
606.84,9818.67
608.8,9683.73
610.75,9588.53
612.7,9820.13
614.65,9484.87
616.6,9405.53
618.54,9386.07
620.49,9639.07
622.43,9552.0
624.38,9340.93
626.32,9077.47
628.27,9252.8
630.21,9192.07
632.15,9056.87
634.09,9282.0
636.03,9393.07
637.96,9393.4
639.9,9531.27
641.84,9361.13
643.77,9360.93
645.71,9316.87
647.64,9390.33
649.57,9114.13
651.5,9311.0
653.43,9170.67
655.36,9270.07
657.29,9178.13
659.22,9103.73
661.14,9265.07
663.07,8924.13
664.99,9063.6
666.92,8900.27
668.84,8974.73
670.76,8613.27
672.68,8758.0
674.6,8741.4
676.52,8826.93
678.44,8804.73
680.35,8667.67
682.27,8589.2
684.19,8449.53
686.1,8864.33
688.01,8776.2
689.92,8783.33
691.83,8552.0
693.74,8703.33
695.65,8737.73
697.56,8424.6
699.47,8636.53
701.38,8739.67
703.28,8445.47
705.19,8697.33
707.09,8946.07
708.99,8360.6
710.89,8851.8
712.79,8403.07
714.69,8306.07
716.59,8188.4
718.49,8123.47
720.39,8394.53
722.28,8219.8
724.18,8322.87
726.07,8323.07
727.96,8050.0
729.85,8240.6
731.74,8101.47
733.63,7981.53
735.52,7897.67
737.41,8160.0
739.3,8106.73
741.18,8287.67
743.07,8167.53
744.95,7839.2
746.84,8248.93
748.72,8005.73
750.6,7881.4
752.48,7893.8
754.36,8075.67
756.24,8255.27
758.12,8169.8
759.99,8014.4
761.87,7983.6
763.74,8197.73
765.62,7959.13
767.49,8120.4
769.36,7675.33
771.23,8223.2
773.1,7694.07
774.97,7590.07
776.84,7791.0
778.7,7535.67
780.57,7720.53
782.44,7505.27
784.3,7879.6
786.16,7879.67
788.02,7582.93
789.89,7833.4
791.75,7515.4
793.6,7661.47
795.46,7618.2
797.32,7554.27
799.18,7596.4
801.03,7545.67
802.89,7560.73
804.74,7743.8
806.59,7491.47
808.44,7783.73
810.29,7507.8
812.14,7390.2
813.99,7403.93
815.84,7339.27
817.69,7449.53
819.53,7357.53
821.38,7572.6
823.22,7718.8
825.06,7350.2
826.9,7317.53
828.75,7244.4
830.59,7315.93
832.42,7118.53
834.26,7160.2
836.1,7246.0
837.93,7447.93
839.77,7219.2
841.6,6938.13
843.44,6983.2
845.27,7176.6
847.1,7145.27
848.93,7013.13
850.76,7042.6
852.59,6900.93
854.42,7096.13
856.24,7092.47
858.07,6713.93
859.89,6882.53
861.72,6606.33
863.54,6632.2
865.36,6711.87
867.18,6390.27
869.0,6628.53
870.82,6528.53
872.64,6539.47
874.45,6513.8
876.27,6498.53
878.08,6527.2
879.9,6562.07
881.71,6364.67
883.52,6273.2
885.33,6320.27
887.14,6208.2
888.95,6448.87
890.76,6189.13
892.57,6278.33
894.37,6309.4
896.18,6185.8
897.98,6450.67
899.79,6559.0
901.59,6199.87
903.39,6297.2
905.19,6139.73
906.99,5792.07
908.79,5952.67
910.58,5943.4
912.38,5859.47
914.18,6899.93
915.97,5975.93
917.76,5916.4
919.56,5861.13
921.35,5783.27
923.14,5802.27
924.93,5853.47
926.72,6056.93
928.51,6058.13
930.29,5779.13
932.08,6241.07
933.86,5923.87
935.65,5673.13
937.43,5775.87
939.21,5445.27
940.99,5715.8
942.77,5650.67
944.55,5283.53
946.33,5549.4
948.11,5896.53
949.88,5718.6
951.66,5423.13
953.43,5725.67
955.21,5616.4
956.98,5643.93
958.75,5532.87
960.52,5416.8
962.29,5986.93
964.06,5278.67
965.82,5419.4
967.59,5290.07
969.36,5054.07
971.12,5558.07
972.88,5232.2
974.65,5303.47
976.41,5259.07
978.17,5042.0
979.93,5243.4
981.69,5428.27
983.45,5296.2
985.2,5346.2
986.96,5273.13
988.71,5410.67
990.47,5234.0
992.22,5209.53
993.97,5314.13
995.72,5373.6
997.47,5431.13
999.22,5706.13
1000.97,5623.33
1002.72,5942.6
1004.46,5928.53
1006.21,5276.2
1007.95,5474.4
1009.7,5379.0
1011.44,5414.27
1013.18,5287.6
1014.92,5398.47
1016.66,5196.2
1018.4,5203.27
1020.13,5377.4
1021.87,5151.0
1023.61,5469.2
1025.34,5295.73
1027.07,5132.27
1028.81,5162.53
1030.54,5196.47
1032.27,4838.33
1034.0,5341.6
1035.73,5042.27
1037.46,4945.67
1039.18,5362.4
1040.91,5072.2
1042.63,4948.6
1044.36,5219.2
1046.08,5056.93
1047.8,4937.13
1049.52,5067.27
1051.24,5194.13
1052.96,5064.87
1054.68,5103.0
1056.4,4946.33
1058.11,5042.2
1059.83,5204.47
1061.54,4923.67
1063.26,5430.67
1064.97,4933.0
1066.68,5223.73
1068.39,4868.4
1070.1,4888.93
1071.81,4897.33
1073.51,4772.27
1075.22,4839.8
1076.93,4721.0
1078.63,5000.27
1080.33,5142.07
1082.04,4883.0
1083.74,4836.27
1085.44,4784.27
1087.14,4939.07
1088.84,4924.8
1090.53,4836.07
1092.23,4730.6
1093.93,4562.2
1095.62,4631.8
1097.32,4753.13
1099.01,4902.67
1100.7,4631.33
1102.39,4710.0
1104.08,4742.93
1105.77,4895.67
1107.46,4639.6
1109.15,4624.13
1110.83,4719.47
1112.52,4649.93
1114.2,4826.07
1115.88,4780.27
1117.57,4694.27
1119.25,4407.6
1120.93,4604.6
1122.61,4734.33
1124.28,4941.6
1125.96,4550.47
1127.64,4705.53
1129.31,4769.8
1130.99,4562.73
1132.66,4405.67
1134.33,4438.87
1136.01,4434.6
1137.68,4304.67
1139.35,4765.73
1141.01,5154.07
1142.68,4316.07
1144.35,4544.07
1146.01,4399.27
1147.68,4702.27
1149.34,4624.27
1151.01,4533.07
1152.67,4294.87
1154.33,4660.2
1155.99,4855.93
1157.65,4414.27
1159.3,4610.87
1160.96,4531.93
1162.62,4498.27
1164.27,4584.07
1165.93,4564.8
1167.58,4525.27
1169.23,4555.2
1170.88,4246.27
1172.53,4533.07
1174.18,4617.67
1175.83,4427.53
1177.48,4438.33
1179.12,4327.27
1180.77,4128.07
1182.41,4176.6
1184.06,4526.0
1185.7,4493.67
1187.34,4289.87
1188.98,4464.87
1190.62,4525.0
1192.26,4549.2
1193.9,4419.8
1195.53,4264.53
1197.17,4422.33
1198.8,4313.0
1200.44,4631.07
1202.07,4546.73
1203.7,4630.47
1205.33,4731.2
1206.96,4493.13
1208.59,4679.4
1210.22,4535.6
1211.85,4386.87
1213.47,4217.2
1215.1,4465.8
1216.72,4527.93
1218.34,4391.47
1219.96,4382.67
1221.59,4561.6
1223.21,4629.93
1224.83,4593.07
1226.44,4176.93
1228.06,4512.13
1229.68,4494.0
1231.29,4586.13
1232.91,4564.53
1234.52,4775.73
1236.13,4638.0
1237.74,4507.27
1239.35,4395.67
1240.96,4660.47
1242.57,4334.47
1244.18,4515.6
1245.78,4609.27
1247.39,4635.53
1248.99,4407.67
1250.6,4521.4
1252.2,4602.87
1253.8,4483.6
1255.4,4516.53
1257.0,4386.4
1258.6,4743.73
1260.2,4503.47
1261.8,4380.6
1263.39,4253.27
1264.99,4231.87
1266.58,4274.53
1268.17,4343.87
1269.77,4440.4
1271.36,4374.0
1272.95,4375.8
1274.54,4491.53
1276.12,4299.87
1277.71,4045.27
1279.3,4167.0
1280.88,4281.13
1282.47,4212.8
1284.05,4410.4
1285.63,4072.6
1287.21,4181.0
1288.79,4146.13
1290.37,4227.07
1291.95,4311.73
1293.53,3957.8
1295.1,4187.73
1296.68,4013.0
1298.25,4131.47
1299.83,4302.87
1301.4,4001.07
1302.97,4441.33
1304.54,3906.13
1306.11,4217.6
1307.68,4180.13
1309.25,3819.73
1310.81,4427.73
1312.38,4021.27
1313.94,4305.27
1315.51,3882.73
1317.07,4076.07
1318.63,4285.13
1320.19,4230.13
1321.75,4255.4
1323.31,4196.73
1324.87,4164.73
1326.43,3977.73
1327.98,4102.87
1329.54,4022.2
1331.09,4326.07
1332.64,4172.27
1334.2,4112.53
1335.75,4203.8
1337.3,4018.27
1338.85,4148.33
1340.4,4054.8
1341.94,3956.8
1343.49,4027.53
1345.03,3926.47
1346.58,3739.67
1348.12,3918.07
1349.66,3573.0
1351.21,4003.53
1352.75,3739.6
1354.29,3796.07
1355.82,3581.47
1357.36,3786.87
1358.9,3891.67
1360.43,3714.8
1361.97,3957.07
1363.5,3664.33
1365.03,3676.0
1366.57,3875.07
1368.1,3823.53
1369.63,3442.47
1371.16,3644.93
1372.68,3593.27
1374.21,3557.33
1375.74,3310.0
1377.26,3599.13
1378.78,3504.67
1380.31,3770.67
1381.83,3669.8
1383.35,3932.93
1384.87,3676.93
1386.39,3564.93
1387.91,3775.47
1389.42,3596.07
1390.94,3599.27
1392.46,3589.73
1393.97,3432.33
1395.48,3433.47
1397.0,3695.33
1398.51,3734.67
1400.02,3530.2
1401.53,3421.4
1403.04,3873.4
1404.54,3426.47
1406.05,3449.0
1407.55,3568.73
1409.06,3642.33
1410.56,3477.87
1412.06,3568.6
1413.57,3513.67
1415.07,3312.4
1416.57,3448.07
1418.07,3744.4
1419.56,3742.53
1421.06,3618.6
1422.56,3626.27
1424.05,3453.8
1425.54,3489.87
1427.04,3532.47
1428.53,3289.87
1430.02,3812.27
1431.51,3635.47
1433.0,3550.87
1434.49,3501.73
1435.97,3584.4
1437.46,3579.33
1438.94,3570.4
1440.43,3739.47
1441.91,3588.47
1443.39,3577.2
1444.88,3605.67
1446.36,3599.47
1447.83,3714.87
1449.31,3574.53
1450.79,3630.73
1452.27,4021.6
1453.74,3524.53
1455.22,3822.47
1456.69,3399.67
1458.16,3540.87
1459.63,3443.0
1461.1,3580.33
1462.57,3625.07
1464.04,3785.6
1465.51,3642.8
1466.98,3377.2
1468.44,3409.0
1469.91,3618.73
1471.37,3348.87
1472.83,3333.47
1474.3,3469.2
1475.76,3311.6
1477.22,3499.2
1478.67,3210.13
1480.13,3256.6
1481.59,3256.27
1483.05,3202.13
1484.5,3388.53
1485.95,3222.47
1487.41,3196.33
1488.86,3563.73
1490.31,2990.47
1491.76,3201.4
1493.21,3386.4
1494.66,3001.4
1496.11,2961.8
1497.55,3078.0
1499.0,2923.67
1500.44,2788.13
1501.88,2822.2
1503.33,3016.73
1504.77,3237.6
1506.21,3166.0
1507.65,3256.13
1509.09,3058.33
1510.52,2985.6
1511.96,3146.53
1513.4,3220.2
1514.83,3160.87
1516.26,3246.27
1517.7,3168.93
1519.13,3022.0
1520.56,3065.07
1521.99,3057.73
1523.42,3177.8
1524.85,3090.53
1526.27,3384.27
1527.7,3073.4
1529.12,3009.0
1530.55,3302.4
1531.97,3234.0
1533.39,3317.4
1534.81,3062.47
1536.23,3037.6
1537.65,3272.93
1539.07,3141.6
1540.49,3078.73
1541.9,3165.2
1543.32,3480.0
1544.73,3244.67
1546.15,3241.87
1547.56,3226.13
1548.97,3341.0
1550.38,3466.4
1551.79,3479.07
1553.2,3315.67
1554.61,3456.8
1556.01,3299.27
1557.42,3388.87
1558.82,3255.27
1560.22,3323.53
1561.63,3210.8
1563.03,3336.4
1564.43,3199.73
1565.83,3210.07
1567.23,3630.0
1568.63,3066.33
1570.02,3358.53
1571.42,3468.73
1572.81,3419.33
1574.21,3474.87
1575.6,3724.73
1576.99,3642.67
1578.38,3548.87
1579.77,3450.53
1581.16,3793.0
1582.55,3837.4
1583.94,3356.13
1585.32,3612.33
1586.71,3611.93
1588.09,3387.47
1589.47,4019.13
1590.86,3635.33
1592.24,3814.2
1593.62,3758.6
1595.0,3902.07
1596.38,3609.33
1597.75,4575.53
1599.13,3875.93
1600.51,3762.33
1601.88,4137.4
1603.25,4096.8
1604.63,4026.13
1606.0,3755.2
1607.37,3861.53
1608.74,4073.73
1610.11,4129.93
1611.47,4059.07
1612.84,4403.2
1614.21,4408.47
1615.57,4127.6
1616.93,4034.53
1618.3,4524.2
1619.66,4248.13
1621.02,3999.73
1622.38,4197.0
1623.74,4406.0
1625.1,4460.67
1626.45,4098.87
1627.81,4283.27
1629.16,4009.13
1630.52,4317.93
1631.87,4124.73
1633.22,4267.13
1634.57,4364.13
1635.92,4230.0
1637.27,4425.07
1638.62,4646.73
1639.97,4383.6
1641.32,4508.47
1642.66,4366.6
1644.01,4152.67
1645.35,4396.33
1646.69,4101.53
1648.03,4296.13
1649.37,4396.93
1650.71,4402.73
1652.05,4505.73
1653.39,4444.13
1654.73,4388.13
1656.06,4272.47
1657.4,4249.0
1658.73,4113.8
1660.06,4388.87
1661.39,4152.73
1662.72,4441.87
1664.05,4147.67
1665.38,4369.4
1666.71,4137.4
1668.04,3774.93
1669.36,3924.4
1670.69,4281.27
1672.01,3952.73
1673.34,4005.8
1674.66,3905.0
1675.98,3786.07
1677.3,4007.6
1678.62,3588.53
1679.94,3692.27
1681.25,3608.73
1682.57,3550.67
1683.88,3638.67
1685.2,3284.87
1686.51,3485.8
1687.82,3434.27
1689.14,2958.33
1690.45,3544.27
1691.76,3183.13
1693.06,3237.13
1694.37,3198.8
1695.68,3027.27
1696.98,3202.6
1698.29,3424.67
1699.59,2968.87
1700.89,2892.07
1702.2,2878.33
1703.5,2973.2
1704.8,2691.27
1706.1,2823.6
1707.39,2795.4
1708.69,2922.33
1709.99,2441.93
1711.28,2680.87
1712.57,2662.13
1713.87,2852.73
1715.16,2542.53
1716.45,2416.87
1717.74,2433.67
1719.03,2692.53
1720.32,2814.27
1721.6,2469.0
1722.89,2741.13
1724.18,2355.6
1725.46,2300.73
1726.74,2499.0
1728.03,2563.07
1729.31,2315.2
1730.59,2550.67
1731.87,2373.4
1733.15,2290.87
1734.42,2167.73
1735.7,2268.2
1736.97,2319.67
1738.25,2370.27
1739.52,2205.47
1740.79,2323.33
1742.07,2264.87
1743.34,2337.4
1744.61,2174.2
1745.88,2160.53
1747.14,2227.27
1748.41,2241.33
1749.68,2244.6
1750.94,2354.2
1752.2,2156.67
1753.47,2227.93
1754.73,1918.13
1755.99,1998.27
1757.25,2056.67
1758.51,2002.6
1759.77,2265.33
1761.02,2005.13
1762.28,2317.27
1763.54,2145.67
1764.79,2203.0
1766.04,2080.87
1767.29,1965.27
1768.55,2116.33
1769.8,2062.0
1771.05,2321.87
1772.29,1905.2
1773.54,2019.67
1774.79,2052.0
1776.03,2236.0
1777.28,2193.53
1778.52,2119.07
1779.76,1793.73
1781.01,2169.2
1782.25,1879.87
1783.49,1812.27
1784.72,2128.6
1785.96,2022.87
1787.2,2009.73
1788.43,1813.53
1789.67,2222.6
1790.9,2012.13
1792.14,2026.8
1793.37,2258.8
1794.6,2159.33
1795.83,2055.27
1797.06,1888.27
1798.28,1898.47
1799.51,1957.13
1800.74,2020.4
1801.96,1921.6
1803.19,1958.27
1804.41,1883.47
1805.63,2305.27
1806.85,2158.87
1808.07,2022.27
1809.29,2083.6
1810.51,1987.33
1811.73,1925.07
1812.94,1540.0
1814.16,1955.4
1815.37,1752.27
1816.59,1835.07
1817.8,1961.13
1819.01,2011.93
1820.22,1830.13
1821.43,1984.93
1822.64,1985.33
1823.85,1824.8
1825.05,1732.13
1826.26,1928.53
1827.46,1931.67
1828.67,1759.67
1829.87,1810.13
1831.07,1844.4
1832.27,1839.2
1833.47,1792.13
1834.67,1932.73
1835.87,1760.93
1837.07,1864.07
1838.26,1986.13
1839.46,2132.47
1840.65,1942.33
1841.85,1869.27
1843.04,1961.67
1844.23,2214.8
1845.42,1889.93
1846.61,1954.4
1847.8,1974.13
1848.98,1890.87
1850.17,1733.6
1851.35,2019.6
1852.54,1832.4
1853.72,1955.87
1854.9,1876.07
1856.09,2085.2
1857.27,1985.53
1858.45,1743.0
1859.62,1819.8
1860.8,1942.07
1861.98,2204.73
1863.15,1822.47
1864.33,1879.53
1865.5,1969.6
1866.68,1702.0
1867.85,1837.93
1869.02,1697.87
1870.19,2215.4
1871.36,1754.27
1872.52,1745.4
1873.69,1672.47
1874.86,1713.4
1876.02,1866.13
1877.19,1686.0
1878.35,1613.8
1879.51,1748.4
1880.67,1907.67
1881.83,1763.47
1882.99,1878.87
1884.15,1585.07
1885.31,1693.47
1886.46,1718.67
1887.62,1848.93
1888.77,1597.93
1889.92,1469.33
1891.08,1498.6
1892.23,2069.07
1893.38,1580.13
