Wavenumber,Intensities
282.29,9357.2
284.39,9294.8
286.49,9083.2
288.59,9317.0
290.7,9053.0
292.79,9076.2
294.89,8926.6
296.99,9289.6
299.09,9371.0
301.18,8973.8
303.28,9197.6
305.37,9156.2
307.47,9409.6
309.56,9291.8
311.65,9039.8
313.74,8810.6
315.83,9053.2
317.92,9174.2
320.0,9180.4
322.09,9138.6
324.18,8929.0
326.26,9505.2
328.34,9051.0
330.43,9457.6
332.51,9292.0
334.59,9226.6
336.67,9421.0
338.75,9531.2
340.83,9636.0
342.9,9974.6
344.98,9960.2
347.05,10106.8
349.13,10350.8
351.2,10600.4
353.27,10620.8
355.35,10451.6
357.42,10354.6
359.49,10200.2
361.55,10431.0
363.62,9762.0
365.69,9857.6
367.75,9524.2
369.82,9538.0
371.88,9417.0
373.95,9608.6
376.01,9281.2
378.07,9300.8
380.13,9265.0
382.19,9035.4
384.25,8933.6
386.31,9213.8
388.36,9566.8
390.42,8808.2
392.47,9567.0
394.53,9189.0
396.58,9454.0
398.63,9613.4
400.68,9152.2
402.73,9149.8
404.78,9284.2
406.83,9483.4
408.87,9436.4
410.92,9373.2
412.97,9702.0
415.01,9517.6
417.05,9686.8
419.1,9496.4
421.14,9910.2
423.18,9873.8
425.22,9856.0
427.25,10044.6
429.29,9932.0
431.33,9934.4
433.36,10163.8
435.4,10419.0
437.43,10187.2
439.47,9968.0
441.5,10092.4
443.53,9673.0
445.56,9957.2
447.59,10224.6
449.62,9686.8
451.64,9906.2
453.67,9883.6
455.7,10011.2
457.72,9911.6
459.74,9888.2
461.77,9311.6
463.79,9834.8
465.81,9933.0
467.83,9641.4
469.85,9524.2
471.86,9109.6
473.88,9595.0
475.9,9642.2
477.91,9356.6
479.93,9159.2
481.94,9073.2
483.95,9128.6
485.96,8974.6
487.97,9078.6
489.98,8638.6
491.99,8562.2
494.0,8997.6
496.0,8851.6
498.01,8396.0
500.01,8184.8
502.02,8487.2
504.02,8326.0
506.02,8092.0
508.02,7976.0
510.02,8286.8
512.02,8234.4
514.02,8035.8
516.01,8493.2
518.01,8396.0
520.01,7813.4
522.0,8162.2
523.99,7860.4
525.99,7655.4
527.98,7642.6
529.97,7804.4
531.96,7586.4
533.94,7454.2
535.93,7587.8
537.92,7436.0
539.9,7343.4
541.89,7562.8
543.87,7214.2
545.85,7329.8
547.84,7260.6
549.82,6932.6
551.8,7240.0
553.78,7280.4
555.75,7166.4
557.73,7145.2
559.71,7096.6
561.68,7328.8
563.66,7178.6
565.63,7445.2
567.6,6858.0
569.57,6711.4
571.54,7136.2
573.51,7129.0
575.48,6942.6
577.45,7099.8
579.41,7091.0
581.38,6977.4
583.34,6757.2
585.31,6976.0
587.27,6851.0
589.23,6988.8
591.19,7033.0
593.15,6964.4
595.11,7023.6
597.07,6825.4
599.03,7020.4
600.98,7014.0
602.94,7534.0
604.89,6940.2
606.84,6923.2
608.8,6819.2
610.75,6687.4
612.7,6941.6
614.65,6682.0
616.6,6579.0
618.54,6576.6
620.49,6916.2
622.43,6831.6
624.38,6629.4
626.32,6367.6
628.27,6535.4
630.21,6484.8
632.15,6284.0
634.09,6584.6
636.03,6699.4
637.96,6691.2
639.9,6891.4
641.84,6756.6
643.77,6837.6
645.71,6790.0
647.64,6897.6
649.57,6638.0
651.5,6833.2
653.43,6693.6
655.36,6838.4
657.29,6792.0
659.22,6650.0
661.14,6796.0
663.07,6330.4
664.99,6525.0
666.92,6378.4
668.84,6421.4
670.76,6049.6
672.68,6198.0
674.6,6224.8
676.52,6334.2
678.44,6265.2
680.35,6174.0
682.27,6089.6
684.19,5926.4
686.1,6470.2
688.01,6251.4
689.92,6305.4
691.83,6114.6
693.74,6304.0
695.65,6402.4
697.56,6092.0
699.47,6339.4
701.38,6584.8
703.28,6270.4
705.19,6572.8
707.09,6959.8
708.99,6258.2
710.89,6830.8
712.79,6376.6
714.69,6268.2
716.59,6211.8
718.49,6089.6
720.39,6373.0
722.28,6178.8
724.18,6306.0
726.07,6284.2
727.96,6015.2
729.85,6194.6
731.74,5989.4
733.63,5857.6
735.52,5807.0
737.41,6103.6
739.3,6024.4
741.18,6283.2
743.07,6160.2
744.95,5754.0
746.84,6237.8
748.72,5959.0
750.6,5795.0
752.48,5867.8
754.36,6045.8
756.24,6276.0
758.12,6182.0
759.99,6118.4
761.87,6126.2
763.74,6426.8
765.62,6226.6
767.49,6433.0
769.36,5958.2
771.23,6599.0
773.1,5992.0
774.97,5905.0
776.84,6167.4
778.7,5784.6
780.57,6033.6
782.44,5782.0
784.3,6240.0
786.16,6215.6
788.02,5873.2
789.89,6169.2
791.75,5842.0
793.6,5952.4
795.46,5928.0
797.32,5896.8
799.18,5985.8
801.03,5933.8
802.89,5914.2
804.74,6129.0
806.59,5881.6
808.44,6256.6
810.29,6033.6
812.14,5873.2
813.99,5937.8
815.84,5863.4
817.69,6040.6
819.53,6034.2
821.38,6315.6
823.22,6512.8
825.06,6186.2
826.9,6143.4
828.75,6134.4
830.59,6196.6
832.42,6083.6
834.26,6190.8
836.1,6347.2
837.93,6665.4
839.77,6467.8
841.6,6266.0
843.44,6427.6
845.27,6676.8
847.1,6704.2
848.93,6730.6
850.76,6870.4
852.59,6741.2
854.42,6951.6
856.24,6938.0
858.07,6547.8
859.89,6784.4
861.72,6549.0
863.54,6599.8
865.36,6744.0
867.18,6362.2
869.0,6734.6
870.82,6657.6
872.64,6810.4
874.45,6843.4
876.27,6902.2
878.08,6972.2
879.9,7090.4
881.71,6922.0
883.52,6746.0
885.33,6728.4
887.14,6574.2
888.95,6764.8
890.76,6378.8
892.57,6481.6
894.37,6520.2
896.18,6432.0
897.98,6742.0
899.79,6813.2
901.59,6408.6
903.39,6552.2
905.19,6324.4
906.99,5937.8
908.79,6137.2
910.58,6089.6
912.38,6021.2
914.18,7234.0
915.97,6136.0
917.76,6049.6
919.56,5992.6
921.35,5851.8
923.14,5841.4
924.93,5846.0
926.72,6038.2
928.51,5994.0
930.29,5675.2
932.08,6306.8
933.86,5979.0
935.65,5826.2
937.43,5976.8
939.21,5685.8
940.99,6090.6
942.77,6085.2
944.55,5725.6
946.33,6105.6
948.11,6488.4
949.88,6335.8
951.66,5993.2
953.43,6299.2
955.21,6103.4
956.98,6119.8
958.75,6001.8
960.52,5772.6
962.29,6439.6
964.06,5611.2
965.82,5734.2
967.59,5596.8
969.36,5345.0
971.12,5946.8
972.88,5574.2
974.65,5671.8
976.41,5668.2
978.17,5479.0
979.93,5768.6
981.69,6003.0
983.45,5828.4
985.2,5960.6
986.96,5863.4
988.71,6045.6
990.47,5784.8
992.22,5842.2
993.97,5933.8
995.72,5974.2
997.47,5989.4
999.22,6412.4
1000.97,6424.6
1002.72,6828.0
1004.46,6778.6
1006.21,5900.6
1007.95,6149.0
1009.7,6004.0
1011.44,6060.0
1013.18,5998.8
1014.92,6187.0
1016.66,6070.8
1018.4,6180.0
1020.13,6416.8
1021.87,6187.0
1023.61,6554.6
1025.34,6366.0
1027.07,6152.0
1028.81,6226.4
1030.54,6261.4
1032.27,5938.0
1034.0,6539.8
1035.73,6204.4
1037.46,6184.0
1039.18,6654.8
1040.91,6379.8
1042.63,6272.0
1044.36,6600.0
1046.08,6496.6
1047.8,6316.2
1049.52,6469.4
1051.24,6660.6
1052.96,6508.2
1054.68,6573.4
1056.4,6434.4
1058.11,6583.4
1059.83,6807.2
1061.54,6524.0
1063.26,7138.2
1064.97,6623.4
1066.68,6930.2
1068.39,6596.6
1070.1,6688.8
1071.81,6819.6
1073.51,6780.0
1075.22,6908.2
1076.93,6940.2
1078.63,7317.6
1080.33,7598.6
1082.04,7271.4
1083.74,7264.0
1085.44,7187.0
1087.14,7267.0
1088.84,7217.8
1090.53,6964.4
1092.23,6787.0
1093.93,6505.0
1095.62,6545.4
1097.32,6618.8
1099.01,6796.0
1100.7,6441.2
1102.39,6520.4
1104.08,6549.4
1105.77,6693.4
1107.46,6426.2
1109.15,6461.6
1110.83,6661.6
1112.52,6682.8
1114.2,6989.6
1115.88,7044.2
1117.57,7025.2
1119.25,6755.0
1120.93,6994.0
1122.61,7094.4
1124.28,7225.2
1125.96,6742.0
1127.64,6771.0
1129.31,6773.2
1130.99,6421.6
1132.66,6123.0
1134.33,6052.8
1136.01,5962.8
1137.68,5752.6
1139.35,6285.0
1141.01,6655.4
1142.68,5689.6
1144.35,5949.0
1146.01,5778.2
1147.68,6122.0
1149.34,6016.2
1151.01,5943.8
1152.67,5615.0
1154.33,5985.6
1155.99,6139.2
1157.65,5597.4
1159.3,5770.6
1160.96,5612.6
1162.62,5524.0
1164.27,5543.8
1165.93,5478.6
1167.58,5340.8
1169.23,5313.0
1170.88,4936.4
1172.53,5221.0
1174.18,5244.6
1175.83,5027.6
1177.48,5014.6
1179.12,4834.4
1180.77,4606.0
1182.41,4624.0
1184.06,5039.6
1185.7,5001.6
1187.34,4693.0
1188.98,4926.8
1190.62,5019.8
1192.26,5035.0
1193.9,4881.4
1195.53,4726.4
1197.17,4910.4
1198.8,4780.8
1200.44,5164.8
1202.07,5057.8
1203.7,5163.2
1205.33,5260.4
1206.96,4980.4
1208.59,5196.6
1210.22,5075.8
1211.85,4908.2
1213.47,4728.0
1215.1,4990.0
1216.72,5076.0
1218.34,4957.4
1219.96,4962.2
1221.59,5148.2
1223.21,5278.0
1224.83,5256.0
1226.44,4767.8
1228.06,5203.6
1229.68,5207.4
1231.29,5306.8
1232.91,5305.4
1234.52,5608.2
1236.13,5500.6
1237.74,5385.0
1239.35,5278.2
1240.96,5624.0
1242.57,5294.4
1244.18,5591.6
1245.78,5731.6
1247.39,5804.4
1248.99,5571.2
1250.6,5796.6
1252.2,5940.8
1253.8,5895.2
1255.4,5942.2
1257.0,5792.2
1258.6,6253.8
1260.2,6043.2
1261.8,5912.4
1263.39,5793.0
1264.99,5736.0
1266.58,5783.6
1268.17,5829.8
1269.77,5939.2
1271.36,5797.6
1272.95,5749.4
1274.54,5811.0
1276.12,5559.2
1277.71,5224.6
1279.3,5330.4
1280.88,5393.8
1282.47,5313.8
1284.05,5501.0
1285.63,5119.2
1287.21,5205.8
1288.79,5167.0
1290.37,5274.0
1291.95,5319.8
1293.53,4960.4
1295.1,5246.2
1296.68,5072.2
1298.25,5214.8
1299.83,5494.2
1301.4,5121.4
1302.97,5650.8
1304.54,5111.6
1306.11,5444.2
1307.68,5446.6
1309.25,5044.8
1310.81,5818.6
1312.38,5352.4
1313.94,5720.8
1315.51,5192.0
1317.07,5433.4
1318.63,5667.4
1320.19,5686.4
1321.75,5650.0
1323.31,5602.8
1324.87,5603.0
1326.43,5433.6
1327.98,5579.6
1329.54,5479.8
1331.09,5862.6
1332.64,5683.6
1334.2,5587.8
1335.75,5686.6
1337.3,5502.6
1338.85,5696.4
1340.4,5579.4
1341.94,5478.2
1343.49,5605.2
1345.03,5433.8
1346.58,5222.4
1348.12,5379.8
1349.66,4981.0
1351.21,5465.6
1352.75,5139.0
1354.29,5205.8
1355.82,4988.6
1357.36,5181.4
1358.9,5310.6
1360.43,5100.2
1361.97,5401.0
1363.5,5117.0
1365.03,5138.0
1366.57,5371.4
1368.1,5314.6
1369.63,4894.2
1371.16,5141.0
1372.68,5099.4
1374.21,5060.0
1375.74,4769.8
1377.26,5064.0
1378.78,4924.0
1380.31,5203.6
1381.83,5080.4
1383.35,5369.8
1384.87,5104.8
1386.39,4889.4
1387.91,5114.8
1389.42,4930.8
1390.94,4901.4
1392.46,4870.2
1393.97,4667.4
1395.48,4640.8
1397.0,4932.2
1398.51,4929.0
1400.02,4727.6
1401.53,4587.0
1403.04,5088.0
1404.54,4568.2
1406.05,4565.8
1407.55,4758.6
1409.06,4790.4
1410.56,4598.4
1412.06,4731.4
1413.57,4655.2
1415.07,4394.0
1416.57,4546.6
1418.07,4899.6
1419.56,4894.6
1421.06,4763.8
1422.56,4780.6
1424.05,4585.6
1425.54,4620.2
1427.04,4675.6
1428.53,4355.4
1430.02,4970.2
1431.51,4758.6
1433.0,4678.6
1434.49,4603.8
1435.97,4706.2
1437.46,4737.2
1438.94,4725.6
1440.43,4976.0
1441.91,4804.2
1443.39,4820.0
1444.88,4888.2
1446.36,4934.0
1447.83,5062.4
1449.31,4917.0
1450.79,5021.6
1452.27,5466.0
1453.74,4948.2
1455.22,5313.6
1456.69,4878.8
1458.16,5034.0
1459.63,4896.8
1461.1,5102.0
1462.57,5141.2
1464.04,5377.6
1465.51,5174.8
1466.98,4800.2
1468.44,4814.0
1469.91,4956.0
1471.37,4581.8
1472.83,4508.0
1474.3,4574.8
1475.76,4336.4
1477.22,4504.8
1478.67,4080.4
1480.13,4096.2
1481.59,4024.8
1483.05,3918.6
1484.5,4094.2
1485.95,3883.2
1487.41,3845.8
1488.86,4227.6
1490.31,3527.6
1491.76,3740.0
1493.21,3931.4
1494.66,3507.0
1496.11,3469.8
1497.55,3559.4
1499.0,3402.2
1500.44,3214.6
1501.88,3237.4
1503.33,3479.0
1504.77,3735.6
1506.21,3605.6
1507.65,3700.6
1509.09,3476.8
1510.52,3394.0
1511.96,3580.8
1513.4,3646.0
1514.83,3585.2
1516.26,3695.2
1517.7,3570.2
1519.13,3398.0
1520.56,3493.4
1521.99,3454.6
1523.42,3593.8
1524.85,3503.2
1526.27,3825.0
1527.7,3435.4
1529.12,3385.8
1530.55,3667.4
1531.97,3583.8
1533.39,3725.8
1534.81,3383.4
1536.23,3354.0
1537.65,3634.6
1539.07,3461.6
1540.49,3415.2
1541.9,3505.4
1543.32,3849.0
1544.73,3554.2
1546.15,3575.4
1547.56,3533.0
1548.97,3643.8
1550.38,3765.0
1551.79,3769.2
1553.2,3577.0
1554.61,3705.8
1556.01,3498.6
1557.42,3594.4
1558.82,3501.8
1560.22,3567.8
1561.63,3434.2
1563.03,3568.6
1564.43,3455.4
1565.83,3453.8
1567.23,3892.0
1568.63,3220.2
1570.02,3565.0
1571.42,3668.8
1572.81,3595.8
1574.21,3723.6
1575.6,3969.4
1576.99,3851.0
1578.38,3723.4
1579.77,3601.4
1581.16,3960.2
1582.55,4048.2
1583.94,3490.2
1585.32,3751.4
1586.71,3727.2
1588.09,3463.8
1589.47,4184.4
1590.86,3670.4
1592.24,3891.2
1593.62,3816.0
1595.0,3938.2
1596.38,3601.2
1597.75,4656.0
1599.13,3866.2
1600.51,3728.2
1601.88,4169.4
1603.25,4092.6
1604.63,4019.4
1606.0,3695.4
1607.37,3773.6
1608.74,3949.6
1610.11,4022.0
1611.47,3902.8
1612.84,4252.6
1614.21,4233.6
1615.57,3931.6
1616.93,3823.8
1618.3,4371.2
1619.66,4012.8
1621.02,3731.0
1622.38,3911.8
1623.74,4141.6
1625.1,4160.8
1626.45,3740.2
1627.81,3929.2
1629.16,3665.6
1630.52,3958.2
1631.87,3763.6
1633.22,3922.4
1634.57,4053.8
1635.92,3918.0
1637.27,4106.2
1638.62,4359.0
1639.97,4069.2
1641.32,4192.8
1642.66,4063.0
1644.01,3797.8
1645.35,4129.6
1646.69,3796.4
1648.03,4040.4
1649.37,4151.0
1650.71,4185.0
1652.05,4302.4
1653.39,4259.6
1654.73,4254.2
1656.06,4109.4
1657.4,4076.6
1658.73,3932.4
1660.06,4290.0
1661.39,4030.2
1662.72,4392.4
1664.05,4015.2
1665.38,4316.4
1666.71,4023.6
1668.04,3637.6
1669.36,3831.4
1670.69,4267.2
1672.01,3962.0
1673.34,4027.2
1674.66,3923.2
1675.98,3794.2
1677.3,4105.4
1678.62,3634.6
1679.94,3820.0
1681.25,3780.4
1682.57,3724.4
1683.88,3856.4
1685.2,3469.0
1686.51,3745.2
1687.82,3679.4
1689.14,3177.2
1690.45,3879.0
1691.76,3479.6
1693.06,3534.4
1694.37,3496.2
1695.68,3302.8
1696.98,3599.6
1698.29,3819.4
1699.59,3359.8
1700.89,3277.6
1702.2,3291.4
1703.5,3403.8
1704.8,3104.6
1706.1,3258.6
1707.39,3253.4
1708.69,3409.0
1709.99,2892.8
1711.28,3146.4
1712.57,3199.6
1713.87,3372.0
1715.16,3050.2
1716.45,2923.2
1717.74,2972.4
1719.03,3265.6
1720.32,3437.4
1721.6,3071.2
1722.89,3355.2
1724.18,2942.8
1725.46,2903.4
1726.74,3105.2
1728.03,3209.2
1729.31,2977.0
1730.59,3223.0
1731.87,3044.6
1733.15,2986.0
1734.42,2826.6
1735.7,2963.4
1736.97,3021.0
1738.25,3097.2
1739.52,2918.0
1740.79,3051.4
1742.07,3018.8
1743.34,3095.6
1744.61,2907.2
1745.88,2907.8
1747.14,3013.2
1748.41,3005.0
1749.68,2970.0
1750.94,3179.8
1752.2,2926.2
1753.47,3014.2
1754.73,2677.2
1755.99,2791.8
1757.25,2869.8
1758.51,2797.2
1759.77,3107.8
1761.02,2785.0
1762.28,3180.4
1763.54,2981.4
1764.79,3049.8
1766.04,2939.0
1767.29,2778.2
1768.55,2952.2
1769.8,2895.8
1771.05,3174.6
1772.29,2723.4
1773.54,2880.0
1774.79,2917.8
1776.03,3097.0
1777.28,3096.4
1778.52,3009.6
1779.76,2641.6
1781.01,3072.0
1782.25,2746.8
1783.49,2679.6
1784.72,3024.2
1785.96,2916.2
1787.2,2906.6
1788.43,2685.4
1789.67,3165.4
1790.9,2912.6
1792.14,2937.4
1793.37,3186.8
1794.6,3107.6
1795.83,2996.8
1797.06,2794.8
1798.28,2806.2
1799.51,2860.2
1800.74,2953.4
1801.96,2819.0
1803.19,2885.2
1804.41,2792.4
1805.63,3283.0
1806.85,3125.2
1808.07,2987.0
1809.29,3015.8
1810.51,2916.2
1811.73,2848.8
1812.94,2412.0
1814.16,2899.8
1815.37,2655.8
1816.59,2753.0
1817.8,2930.0
1819.01,2974.8
1820.22,2760.6
1821.43,2936.8
1822.64,2962.6
1823.85,2758.4
1825.05,2665.6
1826.26,2879.0
1827.46,2867.0
1828.67,2662.6
1829.87,2738.4
1831.07,2786.4
1832.27,2767.6
1833.47,2746.2
1834.67,2911.2
1835.87,2694.0
1837.07,2798.4
1838.26,2963.4
1839.46,3121.4
1840.65,2897.2
1841.85,2821.2
1843.04,2936.6
1844.23,3183.6
1845.42,2846.4
1846.61,2922.4
1847.8,2935.0
1848.98,2835.0
1850.17,2665.8
1851.35,2999.0
1852.54,2784.8
1853.72,2882.8
1854.9,2846.4
1856.09,3071.6
1857.27,2962.6
1858.45,2678.4
1859.62,2810.8
1860.8,2909.0
1861.98,3228.2
1863.15,2801.6
1864.33,2858.8
1865.5,2941.4
1866.68,2623.8
1867.85,2815.2
1869.02,2648.0
1870.19,3233.6
1871.36,2706.8
1872.52,2699.0
1873.69,2617.8
1874.86,2675.4
1876.02,2833.0
1877.19,2624.0
1878.35,2555.0
1879.51,2694.4
1880.67,2845.6
1881.83,2714.4
1882.99,2822.8
1884.15,2519.2
1885.31,2623.2
1886.46,2671.6
1887.62,2822.4
1888.77,2519.8
1889.92,2368.2
1891.08,2407.6
1892.23,3088.6
1893.38,2533.4
