Wavenumber,Intensities
282.29,5880.8
284.39,5855.2
286.49,5624.4
288.59,5915.8
290.7,5670.4
292.79,5722.2
294.89,5525.4
296.99,5983.4
299.09,6063.0
301.18,5647.2
303.28,5887.0
305.37,5854.0
307.47,6163.2
309.56,6053.2
311.65,5785.2
313.74,5618.8
315.83,5805.0
317.92,5940.4
320.0,5988.0
322.09,5911.4
324.18,5708.4
326.26,6276.6
328.34,5833.2
330.43,6211.0
332.51,5992.6
334.59,5898.4
336.67,6022.2
338.75,6053.2
340.83,6085.8
342.9,6273.6
344.98,6177.0
347.05,6220.4
349.13,6388.0
351.2,6538.4
353.27,6581.0
355.35,6408.6
357.42,6412.4
359.49,6417.8
361.55,6761.2
363.62,6282.6
365.69,6421.0
367.75,6248.4
369.82,6385.8
371.88,6330.8
373.95,6538.4
376.01,6292.4
378.07,6344.2
380.13,6298.6
382.19,6098.0
384.25,5981.2
386.31,6283.4
388.36,6604.4
390.42,5832.2
392.47,6552.8
394.53,6230.2
396.58,6435.4
398.63,6583.4
400.68,6064.6
402.73,6010.8
404.78,6113.2
406.83,6309.8
408.87,6324.2
410.92,6209.0
412.97,6457.8
415.01,6279.8
417.05,6416.0
419.1,6176.4
421.14,6544.6
423.18,6471.0
425.22,6467.2
427.25,6571.0
429.29,6467.2
431.33,6407.2
433.36,6614.6
435.4,6851.4
437.43,6646.0
439.47,6366.8
441.5,6569.8
443.53,6128.6
445.56,6429.6
447.59,6685.6
449.62,6204.4
451.64,6472.4
453.67,6456.6
455.7,6623.4
457.72,6512.6
459.74,6548.4
461.77,6004.6
463.79,6509.6
465.81,6612.2
467.83,6343.4
469.85,6265.8
471.86,5827.8
473.88,6338.2
475.9,6432.0
477.91,6193.0
479.93,6079.2
481.94,6073.0
483.95,6152.0
485.96,6076.0
487.97,6189.0
489.98,5842.0
491.99,5796.6
494.0,6242.2
496.0,6070.6
498.01,5613.6
500.01,5404.0
502.02,5676.6
504.02,5468.8
506.02,5183.8
508.02,5050.2
510.02,5307.6
512.02,5260.4
514.02,5012.2
516.01,5420.6
518.01,5334.0
520.01,4756.4
522.0,5163.2
523.99,4863.2
525.99,4740.2
527.98,4702.2
529.97,4834.4
531.96,4598.4
533.94,4486.0
535.93,4616.6
537.92,4479.0
539.9,4426.6
541.89,4664.4
543.87,4387.0
545.85,4478.4
547.84,4457.6
549.82,4197.8
551.8,4491.2
553.78,4504.2
555.75,4370.6
557.73,4367.4
559.71,4307.4
561.68,4518.4
563.66,4419.2
565.63,4709.8
567.6,4106.8
569.57,3991.6
571.54,4364.4
573.51,4413.8
575.48,4232.4
577.45,4384.2
579.41,4376.4
581.38,4268.0
583.34,4070.6
585.31,4314.4
587.27,4190.2
589.23,4334.8
591.19,4441.8
593.15,4349.2
595.11,4385.0
597.07,4225.4
599.03,4430.6
600.98,4463.6
602.94,4965.0
604.89,4412.8
606.84,4375.0
608.8,4336.4
610.75,4211.6
612.7,4462.4
614.65,4201.2
616.6,4095.6
618.54,4080.6
620.49,4352.2
622.43,4315.2
624.38,4141.0
626.32,3870.0
628.27,4044.8
630.21,3996.2
632.15,3829.0
634.09,4110.8
636.03,4251.2
637.96,4185.2
639.9,4394.2
641.84,4156.2
643.77,4181.4
645.71,4094.0
647.64,4252.6
649.57,4000.8
651.5,4220.8
653.43,4064.4
655.36,4193.4
657.29,4129.8
659.22,4011.4
661.14,4285.6
663.07,3831.4
664.99,4081.0
666.92,3959.8
668.84,4022.8
670.76,3659.0
672.68,3849.4
674.6,3871.4
676.52,3971.0
678.44,3934.6
680.35,3866.2
682.27,3794.2
684.19,3618.8
686.1,4157.2
688.01,3971.0
689.92,3988.6
691.83,3830.8
693.74,3990.0
695.65,4107.6
697.56,3744.0
699.47,4006.2
701.38,4213.2
703.28,3871.0
705.19,4196.2
707.09,4565.6
708.99,3863.2
710.89,4455.4
712.79,3998.2
714.69,3908.0
716.59,3857.0
718.49,3746.2
720.39,4059.8
722.28,3885.4
724.18,4002.2
726.07,4033.2
727.96,3779.8
729.85,3967.8
731.74,3798.8
733.63,3680.2
735.52,3610.2
737.41,3892.2
739.3,3858.0
741.18,4085.0
743.07,3927.8
744.95,3562.4
746.84,4055.4
748.72,3763.0
750.6,3586.8
752.48,3658.2
754.36,3836.8
756.24,4022.6
758.12,3930.8
759.99,3898.2
761.87,3861.6
763.74,4206.2
765.62,4005.4
767.49,4258.2
769.36,3789.4
771.23,4452.4
773.1,3854.8
774.97,3829.8
776.84,4062.2
778.7,3698.4
780.57,3976.2
782.44,3731.8
784.3,4195.0
786.16,4217.8
788.02,3893.6
789.89,4131.2
791.75,3864.0
793.6,3990.8
795.46,3951.2
797.32,4001.4
799.18,4167.0
801.03,4075.0
802.89,3991.6
804.74,4173.0
806.59,3945.0
808.44,4312.8
810.29,4057.0
812.14,3884.4
813.99,3966.4
815.84,3861.0
817.69,4027.4
819.53,4033.2
821.38,4285.0
823.22,4408.4
825.06,4072.8
826.9,3981.0
828.75,3940.6
830.59,4025.8
832.42,3881.4
834.26,3946.6
836.1,4076.0
837.93,4374.4
839.77,4149.4
841.6,3866.0
843.44,3993.2
845.27,4201.8
847.1,4163.8
848.93,4086.4
850.76,4147.4
852.59,3964.8
854.42,4192.6
856.24,4200.8
858.07,3823.0
859.89,4036.4
861.72,3842.8
863.54,3883.8
865.36,4028.0
867.18,3716.6
869.0,4061.2
870.82,3968.6
872.64,4019.0
874.45,4041.0
876.27,4023.4
878.08,4058.0
879.9,4178.2
881.71,3954.2
883.52,3854.2
885.33,3874.8
887.14,3772.2
888.95,4050.0
890.76,3736.8
892.57,3848.8
894.37,3912.0
896.18,3803.8
897.98,4162.2
899.79,4269.4
901.59,3931.0
903.39,4073.4
905.19,3937.6
906.99,3546.6
908.79,3801.8
910.58,3806.4
912.38,3702.8
914.18,4919.4
915.97,3839.6
917.76,3764.4
919.56,3689.4
921.35,3553.6
923.14,3556.6
924.93,3612.8
926.72,3794.0
928.51,3775.8
930.29,3505.6
932.08,4085.8
933.86,3758.4
935.65,3577.8
937.43,3720.4
939.21,3422.8
940.99,3808.6
942.77,3774.4
944.55,3378.0
946.33,3682.4
948.11,4105.4
949.88,3906.4
951.66,3599.8
953.43,3900.4
955.21,3765.2
956.98,3815.6
958.75,3748.4
960.52,3542.0
962.29,4233.8
964.06,3457.6
965.82,3599.0
967.59,3493.4
969.36,3262.4
971.12,3875.2
972.88,3499.6
974.65,3591.4
976.41,3557.2
978.17,3350.4
979.93,3578.6
981.69,3802.4
983.45,3636.4
985.2,3751.4
986.96,3659.6
988.71,3804.0
990.47,3583.8
992.22,3609.6
993.97,3681.0
995.72,3709.0
997.47,3708.4
999.22,4001.6
1000.97,3860.8
1002.72,4084.2
1004.46,4125.8
1006.21,3343.0
1007.95,3716.0
1009.7,3656.6
1011.44,3753.8
1013.18,3668.2
1014.92,3850.4
1016.66,3725.6
1018.4,3794.2
1020.13,3997.6
1021.87,3740.0
1023.61,4141.8
1025.34,3960.4
1027.07,3765.0
1028.81,3820.0
1030.54,3823.8
1032.27,3469.0
1034.0,4069.8
1035.73,3767.6
1037.46,3726.6
1039.18,4192.6
1040.91,3869.2
1042.63,3765.4
1044.36,4116.0
1046.08,3939.8
1047.8,3787.4
1049.52,3960.2
1051.24,4106.2
1052.96,3968.0
1054.68,4012.8
1056.4,3819.8
1058.11,3983.0
1059.83,4195.6
1061.54,3901.4
1063.26,4507.8
1064.97,3939.8
1066.68,4291.2
1068.39,3903.4
1070.1,3942.2
1071.81,3999.8
1073.51,3879.2
1075.22,3984.0
1076.93,3899.0
1078.63,4265.0
1080.33,4463.2
1082.04,4153.2
1083.74,4122.4
1085.44,4064.6
1087.14,4190.6
1088.84,4208.0
1090.53,4044.6
1092.23,3937.4
1093.93,3735.6
1095.62,3785.6
1097.32,3926.8
1099.01,4084.8
1100.7,3788.6
1102.39,3871.6
1104.08,3921.8
1105.77,4115.2
1107.46,3823.0
1109.15,3830.6
1110.83,3949.2
1112.52,3929.4
1114.2,4187.4
1115.88,4151.2
1117.57,4086.6
1119.25,3764.0
1120.93,4004.4
1122.61,4104.0
1124.28,4309.6
1125.96,3847.2
1127.64,3993.6
1129.31,4079.6
1130.99,3853.4
1132.66,3628.6
1134.33,3649.0
1136.01,3655.0
1137.68,3495.6
1139.35,4034.6
1141.01,4451.8
1142.68,3487.8
1144.35,3761.2
1146.01,3570.8
1147.68,3914.0
1149.34,3812.4
1151.01,3737.2
1152.67,3417.4
1154.33,3800.4
1155.99,4017.2
1157.65,3516.2
1159.3,3741.6
1160.96,3608.8
1162.62,3592.2
1164.27,3665.2
1165.93,3624.2
1167.58,3523.6
1169.23,3564.0
1170.88,3201.0
1172.53,3528.2
1174.18,3559.0
1175.83,3378.8
1177.48,3410.8
1179.12,3264.0
1180.77,3046.8
1182.41,3100.0
1184.06,3533.0
1185.7,3499.4
1187.34,3239.8
1188.98,3437.2
1190.62,3519.2
1192.26,3527.8
1193.9,3378.8
1195.53,3176.6
1197.17,3360.8
1198.8,3232.8
1200.44,3576.2
1202.07,3489.0
1203.7,3525.2
1205.33,3618.2
1206.96,3306.6
1208.59,3532.2
1210.22,3410.6
1211.85,3283.8
1213.47,3085.8
1215.1,3388.0
1216.72,3481.8
1218.34,3333.2
1219.96,3324.2
1221.59,3502.4
1223.21,3620.2
1224.83,3585.0
1226.44,3051.4
1228.06,3428.8
1229.68,3413.0
1231.29,3506.2
1232.91,3466.8
1234.52,3703.6
1236.13,3552.0
1237.74,3439.4
1239.35,3321.8
1240.96,3657.2
1242.57,3304.2
1244.18,3541.2
1245.78,3643.8
1247.39,3691.6
1248.99,3434.8
1250.6,3625.4
1252.2,3760.2
1253.8,3668.8
1255.4,3717.2
1257.0,3564.8
1258.6,4001.4
1260.2,3769.6
1261.8,3629.2
1263.39,3496.4
1264.99,3468.2
1266.58,3565.6
1268.17,3615.0
1269.77,3738.8
1271.36,3662.0
1272.95,3667.4
1274.54,3753.2
1276.12,3555.0
1277.71,3260.2
1279.3,3404.6
1280.88,3532.0
1282.47,3448.6
1284.05,3625.4
1285.63,3307.6
1287.21,3421.2
1288.79,3403.2
1290.37,3460.6
1291.95,3542.2
1293.53,3216.8
1295.1,3501.0
1296.68,3317.4
1298.25,3445.6
1299.83,3693.8
1301.4,3307.2
1302.97,3821.6
1304.54,3264.8
1306.11,3589.2
1307.68,3546.6
1309.25,3146.6
1310.81,3882.2
1312.38,3398.6
1313.94,3752.4
1315.51,3218.4
1317.07,3457.8
1318.63,3679.2
1320.19,3669.6
1321.75,3682.0
1323.31,3631.8
1324.87,3624.0
1326.43,3429.0
1327.98,3570.8
1329.54,3479.2
1331.09,3897.4
1332.64,3684.8
1334.2,3590.8
1335.75,3689.2
1337.3,3467.8
1338.85,3696.8
1340.4,3563.0
1341.94,3472.2
1343.49,3602.6
1345.03,3454.0
1346.58,3271.6
1348.12,3456.8
1349.66,3082.6
1351.21,3642.6
1352.75,3330.2
1354.29,3390.2
1355.82,3187.4
1357.36,3423.4
1358.9,3523.8
1360.43,3340.2
1361.97,3643.8
1363.5,3337.0
1365.03,3391.8
1366.57,3632.4
1368.1,3588.4
1369.63,3195.0
1371.16,3428.6
1372.68,3384.2
1374.21,3324.2
1375.74,3061.4
1377.26,3386.4
1378.78,3256.4
1380.31,3539.6
1381.83,3452.4
1383.35,3740.8
1384.87,3465.8
1386.39,3269.6
1387.91,3518.6
1389.42,3361.6
1390.94,3314.2
1392.46,3321.2
1393.97,3126.6
1395.48,3097.0
1397.0,3428.0
1398.51,3409.2
1400.02,3219.8
1401.53,3069.0
1403.04,3586.8
1404.54,3081.0
1406.05,3074.2
1407.55,3255.6
1409.06,3315.4
1410.56,3109.4
1412.06,3267.8
1413.57,3210.8
1415.07,2948.2
1416.57,3089.4
1418.07,3476.0
1419.56,3413.6
1421.06,3325.6
1422.56,3305.8
1424.05,3154.0
1425.54,3188.8
1427.04,3239.0
1428.53,2936.0
1430.02,3564.8
1431.51,3356.8
1433.0,3248.8
1434.49,3191.8
1435.97,3293.0
1437.46,3261.8
1438.94,3264.0
1440.43,3468.4
1441.91,3228.4
1443.39,3221.4
1444.88,3281.0
1446.36,3276.8
1447.83,3375.0
1449.31,3190.4
1450.79,3321.8
1452.27,3740.6
1453.74,3240.6
1455.22,3621.8
1456.69,3139.0
1458.16,3319.4
1459.63,3187.0
1461.1,3368.2
1462.57,3422.0
1464.04,3672.0
1465.51,3512.2
1466.98,3169.2
1468.44,3220.0
1469.91,3462.8
1471.37,3170.0
1472.83,3135.0
1474.3,3267.8
1475.76,3122.0
1477.22,3364.2
1478.67,2999.8
1480.13,3048.6
1481.59,3039.0
1483.05,2982.4
1484.5,3160.2
1485.95,3014.8
1487.41,2985.8
1488.86,3381.6
1490.31,2723.4
1491.76,2924.8
1493.21,3158.6
1494.66,2745.2
1496.11,2712.6
1497.55,2812.2
1499.0,2652.6
1500.44,2507.8
1501.88,2530.4
1503.33,2755.8
1504.77,3011.8
1506.21,2915.4
1507.65,3012.8
1509.09,2772.8
1510.52,2724.4
1511.96,2885.2
1513.4,2943.0
1514.83,2928.4
1516.26,3016.6
1517.7,2911.0
1519.13,2702.8
1520.56,2806.2
1521.99,2783.6
1523.42,2941.2
1524.85,2831.2
1526.27,3144.0
1527.7,2783.4
1529.12,2725.6
1530.55,3012.0
1531.97,2951.8
1533.39,3066.0
1534.81,2726.4
1536.23,2686.2
1537.65,2967.8
1539.07,2810.6
1540.49,2743.8
1541.9,2816.8
1543.32,3187.2
1544.73,2884.4
1546.15,2862.4
1547.56,2819.0
1548.97,2952.4
1550.38,3034.6
1551.79,3065.8
1553.2,2811.4
1554.61,2954.2
1556.01,2752.8
1557.42,2883.6
1558.82,2778.8
1560.22,2864.6
1561.63,2743.8
1563.03,2860.2
1564.43,2765.0
1565.83,2748.4
1567.23,3201.0
1568.63,2527.6
1570.02,2876.2
1571.42,2977.8
1572.81,2908.6
1574.21,3025.4
1575.6,3239.6
1576.99,3132.0
1578.38,2985.2
1579.77,2875.2
1581.16,3236.8
1582.55,3317.8
1583.94,2727.8
1585.32,3015.8
1586.71,2951.0
1588.09,2698.2
1589.47,3413.4
1590.86,2929.8
1592.24,3110.8
1593.62,3034.0
1595.0,3163.2
1596.38,2818.2
1597.75,3873.8
1599.13,3045.2
1600.51,2916.4
1601.88,3297.4
1603.25,3217.0
1604.63,3136.6
1606.0,2781.0
1607.37,2876.8
1608.74,3041.6
1610.11,3106.8
1611.47,2942.0
1612.84,3334.0
1614.21,3319.4
1615.57,2980.0
1616.93,2858.6
1618.3,3414.4
1619.66,3067.2
1621.02,2747.8
1622.38,2962.4
1623.74,3198.6
1625.1,3236.0
1626.45,2808.6
1627.81,2996.2
1629.16,2718.8
1630.52,3014.0
1631.87,2807.8
1633.22,2947.2
1634.57,3066.4
1635.92,2943.4
1637.27,3147.8
1638.62,3379.6
1639.97,3081.2
1641.32,3201.0
1642.66,3081.0
1644.01,2809.2
1645.35,3119.0
1646.69,2798.8
1648.03,3021.8
1649.37,3129.6
1650.71,3172.2
1652.05,3271.4
1653.39,3223.0
1654.73,3230.6
1656.06,3040.2
1657.4,3039.4
1658.73,2904.8
1660.06,3256.2
1661.39,2993.8
1662.72,3339.2
1664.05,2966.4
1665.38,3262.6
1666.71,2996.6
1668.04,2635.2
1669.36,2844.8
1670.69,3274.0
1672.01,2975.4
1673.34,3041.8
1674.66,2980.0
1675.98,2858.0
1677.3,3194.0
1678.62,2755.2
1679.94,2949.8
1681.25,2925.4
1682.57,2893.6
1683.88,3058.2
1685.2,2687.6
1686.51,2983.0
1687.82,2948.2
1689.14,2469.6
1690.45,3173.6
1691.76,2801.8
1693.06,2892.8
1694.37,2885.0
1695.68,2745.4
1696.98,3028.0
1698.29,3281.4
1699.59,2826.8
1700.89,2752.2
1702.2,2781.8
1703.5,2914.6
1704.8,2624.8
1706.1,2779.0
1707.39,2798.4
1708.69,2969.4
1709.99,2453.0
1711.28,2706.6
1712.57,2746.8
1713.87,2963.4
1715.16,2668.0
1716.45,2512.2
1717.74,2562.4
1719.03,2867.0
1720.32,3087.8
1721.6,2695.2
1722.89,2987.6
1724.18,2578.4
1725.46,2536.4
1726.74,2776.4
1728.03,2843.4
1729.31,2618.6
1730.59,2903.4
1731.87,2728.6
1733.15,2653.8
1734.42,2481.8
1735.7,2639.0
1736.97,2706.6
1738.25,2763.6
1739.52,2602.0
1740.79,2766.8
1742.07,2695.8
1743.34,2778.0
1744.61,2609.4
1745.88,2602.6
1747.14,2693.6
1748.41,2705.4
1749.68,2686.8
1750.94,2877.6
1752.2,2655.2
1753.47,2742.2
1754.73,2371.0
1755.99,2513.6
1757.25,2597.4
1758.51,2510.0
1759.77,2824.6
1761.02,2521.4
1762.28,2922.2
1763.54,2720.4
1764.79,2801.0
1766.04,2670.4
1767.29,2529.0
1768.55,2699.2
1769.8,2636.0
1771.05,2943.6
1772.29,2509.4
1773.54,2629.4
1774.79,2660.4
1776.03,2872.4
1777.28,2838.0
1778.52,2768.4
1779.76,2404.4
1781.01,2820.4
1782.25,2496.2
1783.49,2440.8
1784.72,2780.4
1785.96,2693.6
1787.2,2681.4
1788.43,2445.6
1789.67,2934.4
1790.9,2690.6
1792.14,2719.6
1793.37,2940.6
1794.6,2868.4
1795.83,2778.8
1797.06,2554.8
1798.28,2577.0
1799.51,2643.6
1800.74,2728.6
1801.96,2612.6
1803.19,2683.2
1804.41,2573.2
1805.63,3081.2
1806.85,2917.6
1808.07,2771.2
1809.29,2824.4
1810.51,2707.4
1811.73,2626.2
1812.94,2212.2
1814.16,2688.4
1815.37,2445.2
1816.59,2544.2
1817.8,2715.6
1819.01,2756.0
1820.22,2548.8
1821.43,2717.2
1822.64,2756.0
1823.85,2563.0
1825.05,2456.0
1826.26,2688.4
1827.46,2673.2
1828.67,2467.4
1829.87,2539.6
1831.07,2594.6
1832.27,2565.6
1833.47,2553.4
1834.67,2729.4
1835.87,2510.6
1837.07,2605.0
1838.26,2773.4
1839.46,2943.6
1840.65,2708.0
1841.85,2637.6
1843.04,2763.8
1844.23,3021.8
1845.42,2649.8
1846.61,2742.8
1847.8,2766.0
1848.98,2671.0
1850.17,2491.8
1851.35,2819.0
1852.54,2601.2
1853.72,2715.6
1854.9,2642.8
1856.09,2908.0
1857.27,2798.6
1858.45,2500.2
1859.62,2638.2
1860.8,2740.0
1861.98,3076.0
1863.15,2611.8
1864.33,2680.8
1865.5,2782.6
1866.68,2475.8
1867.85,2653.6
1869.02,2468.0
1870.19,3056.0
1871.36,2535.0
1872.52,2536.8
1873.69,2450.0
1874.86,2508.4
1876.02,2659.0
1877.19,2438.6
1878.35,2395.4
1879.51,2530.4
1880.67,2674.6
1881.83,2544.2
1882.99,2686.0
1884.15,2351.2
1885.31,2469.8
1886.46,2511.6
1887.62,2648.8
1888.77,2348.0
1889.92,2195.6
1891.08,2252.0
1892.23,2925.4
1893.38,2361.2
