Wavenumber,Intensities
282.29,9215.2
284.39,9269.4
286.49,9267.8
288.59,9335.4
290.7,9340.6
292.79,9351.4
294.89,9382.4
296.99,9434.2
299.09,9436.4
301.18,9404.4
303.28,9452.4
305.37,9485.6
307.47,9503.2
309.56,9485.4
311.65,9478.0
313.74,9444.4
315.83,9488.6
317.92,9485.6
320.0,9506.0
322.09,9512.2
324.18,9467.4
326.26,9567.6
328.34,9524.4
330.43,9635.2
332.51,9663.4
334.59,9749.8
336.67,9904.0
338.75,10005.2
340.83,10213.8
342.9,10397.4
344.98,10606.0
347.05,10787.0
349.13,10999.2
351.2,11133.6
353.27,11174.6
355.35,11151.8
357.42,11035.6
359.49,10863.2
361.55,10722.6
363.62,10427.4
365.69,10187.2
367.75,9902.4
369.82,9750.6
371.88,9581.0
373.95,9481.8
376.01,9340.4
378.07,9358.8
380.13,9290.6
382.19,9266.4
384.25,9247.2
386.31,9279.8
388.36,9399.0
390.42,9271.6
392.47,9396.2
394.53,9367.8
396.58,9434.0
398.63,9519.0
400.68,9523.4
402.73,9625.4
404.78,9701.4
406.83,9703.6
408.87,9722.4
410.92,9677.2
412.97,9753.6
415.01,9762.6
417.05,9884.2
419.1,9992.8
421.14,10091.6
423.18,10195.8
425.22,10226.0
427.25,10237.2
429.29,10245.8
431.33,10267.0
433.36,10286.8
435.4,10383.4
437.43,10443.2
439.47,10409.8
441.5,10466.6
443.53,10410.4
445.56,10434.8
447.59,10443.2
449.62,10379.4
451.64,10327.2
453.67,10306.6
455.7,10288.4
457.72,10170.6
459.74,10069.4
461.77,9935.4
463.79,9925.2
465.81,9901.8
467.83,9823.4
469.85,9760.6
471.86,9663.2
473.88,9689.2
475.9,9683.2
477.91,9573.6
479.93,9475.0
481.94,9394.6
483.95,9278.8
485.96,9198.6
487.97,9118.0
489.98,9004.0
491.99,8951.0
494.0,8965.4
496.0,8910.0
498.01,8844.0
500.01,8828.8
502.02,8867.0
504.02,8845.6
506.02,8901.8
508.02,8894.8
510.02,8966.2
512.02,8980.8
514.02,8959.6
516.01,9038.2
518.01,8958.6
520.01,8777.8
522.0,8764.8
523.99,8661.8
525.99,8615.2
527.98,8580.4
529.97,8588.6
531.96,8545.4
533.94,8556.0
535.93,8603.4
537.92,8557.6
539.9,8527.4
541.89,8500.2
543.87,8393.8
545.85,8333.0
547.84,8292.6
549.82,8237.4
551.8,8253.8
553.78,8274.6
555.75,8209.8
557.73,8207.8
559.71,8226.6
561.68,8278.2
563.66,8254.0
565.63,8301.2
567.6,8243.4
569.57,8177.2
571.54,8201.6
573.51,8190.0
575.48,8152.0
577.45,8151.6
579.41,8136.2
581.38,8133.8
583.34,8101.4
585.31,8130.0
587.27,8096.6
589.23,8102.4
591.19,8115.0
593.15,8086.6
595.11,8038.4
597.07,8008.4
599.03,8001.2
600.98,7986.6
602.94,8014.8
604.89,7872.8
606.84,7830.8
608.8,7810.4
610.75,7734.0
612.7,7733.6
614.65,7680.6
616.6,7678.4
618.54,7746.0
620.49,7838.4
622.43,7853.8
624.38,7773.2
626.32,7708.6
628.27,7693.6
630.21,7637.2
632.15,7587.0
634.09,7621.2
636.03,7679.0
637.96,7713.2
639.9,7840.2
641.84,7950.2
643.77,8030.4
645.71,8031.2
647.64,7995.2
649.57,7932.6
651.5,7910.0
653.43,7834.8
655.36,7806.6
657.29,7730.8
659.22,7670.0
661.14,7668.4
663.07,7553.6
664.99,7541.0
666.92,7540.8
668.84,7522.6
670.76,7432.4
672.68,7427.8
674.6,7378.2
676.52,7376.6
678.44,7350.2
680.35,7301.6
682.27,7304.8
684.19,7258.4
686.1,7283.6
688.01,7275.2
689.92,7292.6
691.83,7285.0
693.74,7326.6
695.65,7424.0
697.56,7427.0
699.47,7506.8
701.38,7533.4
703.28,7542.4
705.19,7572.0
707.09,7638.2
708.99,7550.0
710.89,7574.0
712.79,7529.4
714.69,7412.8
716.59,7415.6
718.49,7306.4
720.39,7318.2
722.28,7244.8
724.18,7223.0
726.07,7155.6
727.96,7122.4
729.85,7099.8
731.74,7052.6
733.63,7032.8
735.52,6964.2
737.41,7059.4
739.3,7031.4
741.18,7067.8
743.07,7066.2
744.95,7001.2
746.84,7087.2
748.72,7044.8
750.6,6998.8
752.48,7061.6
754.36,7091.2
756.24,7163.4
758.12,7243.2
759.99,7219.8
761.87,7231.2
763.74,7234.2
765.62,7179.4
767.49,7209.0
769.36,7127.0
771.23,7185.4
773.1,7098.2
774.97,7039.8
776.84,7042.0
778.7,6976.0
780.57,6985.0
782.44,6948.6
784.3,6952.4
786.16,6921.4
788.02,6914.4
789.89,6874.2
791.75,6854.4
793.6,6828.6
795.46,6799.6
797.32,6780.8
799.18,6802.8
801.03,6780.6
802.89,6785.4
804.74,6818.2
806.59,6783.8
808.44,6830.8
810.29,6828.6
812.14,6818.0
813.99,6802.0
815.84,6800.4
817.69,6888.6
819.53,6941.6
821.38,7039.8
823.22,7109.6
825.06,7154.4
826.9,7194.6
828.75,7253.2
830.59,7294.8
832.42,7336.4
834.26,7414.2
836.1,7465.8
837.93,7550.8
839.77,7653.2
841.6,7723.8
843.44,7789.2
845.27,7956.8
847.1,8049.2
848.93,8195.6
850.76,8305.6
852.59,8364.6
854.42,8459.8
856.24,8402.0
858.07,8383.6
859.89,8361.6
861.72,8326.2
863.54,8320.0
865.36,8338.2
867.18,8293.2
869.0,8324.4
870.82,8364.2
872.64,8475.0
874.45,8503.6
876.27,8531.8
878.08,8532.8
879.9,8511.4
881.71,8423.0
883.52,8294.2
885.33,8250.2
887.14,8169.0
888.95,8152.2
890.76,8053.4
892.57,8091.2
894.37,8046.4
896.18,8023.2
897.98,8024.6
899.79,8006.2
901.59,7900.0
903.39,7901.6
905.19,7818.6
906.99,7730.2
908.79,7735.2
910.58,7688.2
912.38,7674.6
914.18,7801.2
915.97,7642.8
917.76,7616.0
919.56,7608.4
921.35,7576.6
923.14,7529.4
924.93,7457.4
926.72,7450.4
928.51,7440.6
930.29,7371.4
932.08,7447.4
933.86,7409.4
935.65,7419.4
937.43,7479.2
939.21,7496.2
940.99,7553.8
942.77,7618.4
944.55,7592.6
946.33,7664.8
948.11,7725.6
949.88,7682.8
951.66,7607.6
953.43,7589.2
955.21,7517.4
956.98,7499.2
958.75,7440.4
960.52,7345.8
962.29,7352.4
964.06,7209.6
965.82,7179.4
967.59,7148.0
969.36,7101.8
971.12,7165.6
972.88,7140.6
974.65,7101.2
976.41,7090.2
978.17,7112.6
979.93,7136.8
981.69,7162.0
983.45,7167.2
985.2,7204.4
986.96,7214.2
988.71,7260.0
990.47,7228.0
992.22,7269.0
993.97,7307.6
995.72,7368.4
997.47,7500.6
999.22,7756.2
1000.97,8014.0
1002.72,8288.8
1004.46,8281.4
1006.21,7972.6
1007.95,7851.6
1009.7,7715.8
1011.44,7664.6
1013.18,7699.6
1014.92,7743.0
1016.66,7685.8
1018.4,7679.8
1020.13,7705.4
1021.87,7645.0
1023.61,7726.8
1025.34,7677.6
1027.07,7651.0
1028.81,7723.2
1030.54,7754.2
1032.27,7722.2
1034.0,7810.4
1035.73,7749.6
1037.46,7743.0
1039.18,7824.8
1040.91,7785.2
1042.63,7796.2
1044.36,7854.2
1046.08,7863.4
1047.8,7906.8
1049.52,7982.8
1051.24,7992.0
1052.96,8047.4
1054.68,8055.2
1056.4,8106.8
1058.11,8141.6
1059.83,8191.6
1061.54,8227.6
1063.26,8360.2
1064.97,8312.2
1066.68,8429.4
1068.39,8448.2
1070.1,8510.8
1071.81,8626.0
1073.51,8678.4
1075.22,8777.8
1076.93,8824.0
1078.63,8890.4
1080.33,8978.6
1082.04,8976.0
1083.74,8869.8
1085.44,8859.0
1087.14,8771.2
1088.84,8697.2
1090.53,8611.4
1092.23,8543.2
1093.93,8427.0
1095.62,8412.0
1097.32,8364.0
1099.01,8376.2
1100.7,8301.6
1102.39,8278.8
1104.08,8327.6
1105.77,8345.2
1107.46,8330.6
1109.15,8446.8
1110.83,8504.6
1112.52,8642.0
1114.2,8702.8
1115.88,8781.0
1117.57,8787.4
1119.25,8751.2
1120.93,8747.4
1122.61,8721.8
1124.28,8700.6
1125.96,8525.0
1127.64,8384.4
1129.31,8248.0
1130.99,8042.8
1132.66,7843.6
1134.33,7714.6
1136.01,7552.2
1137.68,7429.2
1139.35,7418.6
1141.01,7420.0
1142.68,7275.2
1144.35,7282.0
1146.01,7270.0
1147.68,7311.2
1149.34,7282.0
1151.01,7231.0
1152.67,7165.8
1154.33,7137.6
1155.99,7086.8
1157.65,6914.4
1159.3,6846.0
1160.96,6693.2
1162.62,6546.2
1164.27,6458.0
1165.93,6358.4
1167.58,6272.6
1169.23,6164.6
1170.88,6064.6
1172.53,6075.4
1174.18,5993.2
1175.83,5901.2
1177.48,5883.0
1179.12,5798.2
1180.77,5710.0
1182.41,5662.8
1184.06,5695.4
1185.7,5684.8
1187.34,5626.4
1188.98,5649.4
1190.62,5691.2
1192.26,5725.2
1193.9,5718.2
1195.53,5729.6
1197.17,5767.6
1198.8,5774.8
1200.44,5892.8
1202.07,5911.2
1203.7,5953.0
1205.33,6020.8
1206.96,6038.0
1208.59,6051.6
1210.22,6036.6
1211.85,5993.4
1213.47,5982.6
1215.1,6007.8
1216.72,6014.8
1218.34,6032.6
1219.96,6056.4
1221.59,6114.6
1223.21,6181.6
1224.83,6189.0
1226.44,6199.8
1228.06,6303.0
1229.68,6326.6
1231.29,6405.6
1232.91,6425.8
1234.52,6559.0
1236.13,6591.0
1237.74,6604.4
1239.35,6641.8
1240.96,6717.0
1242.57,6713.4
1244.18,6817.0
1245.78,6858.2
1247.39,6924.4
1248.99,6879.6
1250.6,6980.6
1252.2,6973.4
1253.8,7051.0
1255.4,7093.6
1257.0,7119.2
1258.6,7180.0
1260.2,7198.2
1261.8,7121.6
1263.39,7120.0
1264.99,7062.4
1266.58,7040.4
1268.17,7026.0
1269.77,6965.8
1271.36,6845.2
1272.95,6792.8
1274.54,6712.2
1276.12,6616.0
1277.71,6517.4
1279.3,6464.6
1280.88,6435.2
1282.47,6342.6
1284.05,6316.0
1285.63,6239.4
1287.21,6235.0
1288.79,6205.8
1290.37,6190.0
1291.95,6206.0
1293.53,6142.2
1295.1,6189.8
1296.68,6181.6
1298.25,6225.6
1299.83,6289.4
1301.4,6311.2
1302.97,6431.4
1304.54,6380.2
1306.11,6469.4
1307.68,6517.2
1309.25,6500.6
1310.81,6627.4
1312.38,6622.6
1313.94,6666.8
1315.51,6645.4
1317.07,6678.2
1318.63,6739.0
1320.19,6740.6
1321.75,6710.2
1323.31,6738.4
1324.87,6768.0
1326.43,6720.8
1327.98,6735.8
1329.54,6719.2
1331.09,6815.8
1332.64,6732.2
1334.2,6748.4
1335.75,6761.0
1337.3,6753.4
1338.85,6753.2
1340.4,6712.6
1341.94,6704.8
1343.49,6665.4
1345.03,6611.4
1346.58,6518.6
1348.12,6476.4
1349.66,6353.0
1351.21,6382.8
1352.75,6246.2
1354.29,6258.2
1355.82,6147.2
1357.36,6154.2
1358.9,6161.8
1360.43,6088.2
1361.97,6139.0
1363.5,6051.0
1365.03,6064.0
1366.57,6070.2
1368.1,6085.2
1369.63,5984.8
1371.16,5982.6
1372.68,5920.4
1374.21,5911.4
1375.74,5837.6
1377.26,5847.6
1378.78,5784.4
1380.31,5783.0
1381.83,5772.4
1383.35,5774.0
1384.87,5739.4
1386.39,5664.4
1387.91,5664.4
1389.42,5607.4
1390.94,5565.0
1392.46,5505.8
1393.97,5459.2
1395.48,5422.0
1397.0,5438.2
1398.51,5395.6
1400.02,5363.6
1401.53,5329.0
1403.04,5381.8
1404.54,5281.8
1406.05,5285.0
1407.55,5268.2
1409.06,5263.6
1410.56,5240.0
1412.06,5245.4
1413.57,5212.4
1415.07,5188.2
1416.57,5202.2
1418.07,5235.4
1419.56,5245.2
1421.06,5223.2
1422.56,5195.8
1424.05,5148.6
1425.54,5153.4
1427.04,5163.0
1428.53,5129.6
1430.02,5192.4
1431.51,5177.0
1433.0,5205.8
1434.49,5247.0
1435.97,5303.2
1437.46,5356.8
1438.94,5432.8
1440.43,5533.8
1441.91,5561.2
1443.39,5651.4
1444.88,5719.6
1446.36,5809.6
1447.83,5889.2
1449.31,5874.0
1450.79,5921.8
1452.27,5956.0
1453.74,5873.4
1455.22,5908.6
1456.69,5836.8
1458.16,5849.0
1459.63,5838.4
1461.1,5821.2
1462.57,5761.2
1464.04,5748.0
1465.51,5628.8
1466.98,5476.8
1468.44,5407.0
1469.91,5280.2
1471.37,5113.2
1472.83,4952.8
1474.3,4809.6
1475.76,4659.6
1477.22,4520.8
1478.67,4356.8
1480.13,4233.0
1481.59,4129.8
1483.05,4005.8
1484.5,3965.2
1485.95,3846.6
1487.41,3791.0
1488.86,3769.2
1490.31,3632.4
1491.76,3607.2
1493.21,3597.4
1494.66,3503.0
1496.11,3479.6
1497.55,3447.2
1499.0,3405.2
1500.44,3353.8
1501.88,3341.6
1503.33,3354.4
1504.77,3350.8
1506.21,3337.8
1507.65,3322.0
1509.09,3295.2
1510.52,3276.4
1511.96,3274.6
1513.4,3292.2
1514.83,3283.0
1516.26,3293.6
1517.7,3229.8
1519.13,3220.6
1520.56,3200.8
1521.99,3185.6
1523.42,3204.2
1524.85,3180.4
1526.27,3212.4
1527.7,3155.2
1529.12,3160.2
1530.55,3165.4
1531.97,3176.0
1533.39,3145.8
1534.81,3128.8
1536.23,3117.6
1537.65,3157.0
1539.07,3136.6
1540.49,3103.6
1541.9,3123.8
1543.32,3192.8
1544.73,3124.4
1546.15,3144.8
1547.56,3143.4
1548.97,3169.8
1550.38,3176.0
1551.79,3178.8
1553.2,3148.6
1554.61,3147.2
1556.01,3099.2
1557.42,3099.4
1558.82,3074.2
1560.22,3062.2
1561.63,3043.2
1563.03,3059.0
1564.43,3018.8
1565.83,2995.4
1567.23,3058.0
1568.63,2970.8
1570.02,3005.8
1571.42,3021.0
1572.81,3003.8
1574.21,3021.0
1575.6,3053.6
1576.99,3020.4
1578.38,3010.4
1579.77,2991.4
1581.16,3059.8
1582.55,3076.6
1583.94,3041.6
1585.32,3049.8
1586.71,3043.8
1588.09,3008.2
1589.47,3078.0
1590.86,3002.2
1592.24,3044.8
1593.62,3039.2
1595.0,3055.4
1596.38,3026.4
1597.75,3181.4
1599.13,3107.8
1600.51,3091.0
1601.88,3158.8
1603.25,3190.8
1604.63,3175.2
1606.0,3120.0
1607.37,3136.6
1608.74,3162.0
1610.11,3164.6
1611.47,3142.0
1612.84,3185.0
1614.21,3181.8
1615.57,3148.0
1616.93,3132.6
1618.3,3193.4
1619.66,3121.4
1621.02,3069.2
1622.38,3064.4
1623.74,3093.8
1625.1,3084.8
1626.45,3008.2
1627.81,3013.4
1629.16,2992.8
1630.52,3030.0
1631.87,3021.0
1633.22,3032.4
1634.57,3059.8
1635.92,3043.6
1637.27,3058.4
1638.62,3106.2
1639.97,3097.0
1641.32,3128.2
1642.66,3119.0
1644.01,3112.2
1645.35,3159.2
1646.69,3145.6
1648.03,3184.2
1649.37,3227.6
1650.71,3230.6
1652.05,3261.2
1653.39,3296.6
1654.73,3304.4
1656.06,3300.6
1657.4,3300.6
1658.73,3317.2
1660.06,3339.2
1661.39,3314.2
1662.72,3348.2
1664.05,3315.0
1665.38,3344.4
1666.71,3296.8
1668.04,3254.8
1669.36,3284.6
1670.69,3286.8
1672.01,3232.4
1673.34,3229.2
1674.66,3170.6
1675.98,3142.0
1677.3,3153.2
1678.62,3057.6
1679.94,3062.8
1681.25,3014.2
1682.57,2989.2
1683.88,2951.2
1685.2,2896.6
1686.51,2895.2
1687.82,2849.6
1689.14,2762.8
1690.45,2820.8
1691.76,2730.2
1693.06,2701.4
1694.37,2678.4
1695.68,2617.8
1696.98,2626.4
1698.29,2608.8
1699.59,2528.2
1700.89,2489.6
1702.2,2480.2
1703.5,2473.6
1704.8,2408.2
1706.1,2421.8
1707.39,2422.0
1708.69,2412.0
1709.99,2318.4
1711.28,2358.8
1712.57,2349.2
1713.87,2361.0
1715.16,2314.8
1716.45,2294.4
1717.74,2271.6
1719.03,2322.4
1720.32,2322.4
1721.6,2269.8
1722.89,2297.2
1724.18,2248.0
1725.46,2233.6
1726.74,2271.0
1728.03,2265.6
1729.31,2214.6
1730.59,2270.0
1731.87,2241.0
1733.15,2207.6
1734.42,2196.2
1735.7,2191.0
1736.97,2202.4
1738.25,2199.2
1739.52,2173.2
1740.79,2194.0
1742.07,2177.4
1743.34,2192.6
1744.61,2170.8
1745.88,2153.2
1747.14,2157.0
1748.41,2159.4
1749.68,2160.0
1750.94,2175.8
1752.2,2148.4
1753.47,2144.0
1754.73,2094.6
1755.99,2105.4
1757.25,2107.4
1758.51,2102.4
1759.77,2124.4
1761.02,2082.6
1762.28,2142.0
1763.54,2098.2
1764.79,2116.6
1766.04,2096.2
1767.29,2069.6
1768.55,2092.4
1769.8,2073.4
1771.05,2100.0
1772.29,2045.4
1773.54,2062.6
1774.79,2067.4
1776.03,2075.6
1777.28,2080.0
1778.52,2055.8
1779.76,2005.0
1781.01,2061.0
1782.25,2017.0
1783.49,2002.8
1784.72,2045.8
1785.96,2020.0
1787.2,2027.2
1788.43,1987.2
1789.67,2041.8
1790.9,2014.8
1792.14,2007.4
1793.37,2044.4
1794.6,2003.4
1795.83,2012.6
1797.06,1973.0
1798.28,1972.2
1799.51,1972.2
1800.74,1985.8
1801.96,1952.6
1803.19,1972.4
1804.41,1937.0
1805.63,2014.0
1806.85,1967.0
1808.07,1961.0
1809.29,1965.4
1810.51,1954.0
1811.73,1933.0
1812.94,1879.8
1814.16,1926.8
1815.37,1920.0
1816.59,1908.0
1817.8,1931.4
1819.01,1939.2
1820.22,1884.4
1821.43,1917.8
1822.64,1922.4
1823.85,1893.4
1825.05,1861.6
1826.26,1888.0
1827.46,1886.0
1828.67,1866.0
1829.87,1875.2
1831.07,1869.2
1832.27,1869.0
1833.47,1862.2
1834.67,1870.8
1835.87,1859.8
1837.07,1854.0
1838.26,1878.2
1839.46,1894.2
1840.65,1867.6
1841.85,1847.2
1843.04,1860.6
1844.23,1893.6
1845.42,1840.2
1846.61,1851.0
1847.8,1844.8
1848.98,1841.0
1850.17,1816.0
1851.35,1844.0
1852.54,1833.0
1853.72,1840.4
1854.9,1819.6
1856.09,1854.0
1857.27,1826.6
1858.45,1792.4
1859.62,1787.8
1860.8,1806.6
1861.98,1857.0
1863.15,1803.8
1864.33,1790.2
1865.5,1814.6
1866.68,1771.0
1867.85,1793.2
1869.02,1761.2
1870.19,1833.2
1871.36,1778.0
1872.52,1769.8
1873.69,1749.2
1874.86,1748.0
1876.02,1771.8
1877.19,1753.6
1878.35,1742.2
1879.51,1748.8
1880.67,1761.2
1881.83,1746.0
1882.99,1760.4
1884.15,1718.8
1885.31,1731.6
1886.46,1722.0
1887.62,1752.0
1888.77,1699.8
1889.92,1683.2
1891.08,1692.2
1892.23,1771.8
1893.38,1694.4
