Wavenumber,Intensities
282.29,7908.7
284.39,7960.4
286.49,7981.8
288.59,8003.9
290.7,8006.3
292.79,8041.3
294.89,8066.0
296.99,8069.8
299.09,8068.1
301.18,8116.8
303.28,8108.3
305.37,8147.0
307.47,8138.0
309.56,8136.6
311.65,8132.7
313.74,8122.8
315.83,8163.4
317.92,8133.1
320.0,8136.0
322.09,8129.2
324.18,8132.2
326.26,8162.6
328.34,8207.6
330.43,8207.0
332.51,8277.1
334.59,8385.2
336.67,8494.8
338.75,8626.4
340.83,8752.6
342.9,8942.8
344.98,9184.9
347.05,9340.1
349.13,9532.4
351.2,9627.2
353.27,9689.9
355.35,9620.4
357.42,9523.0
359.49,9342.8
361.55,9159.5
363.62,8949.6
365.69,8727.1
367.75,8559.9
369.82,8374.1
371.88,8227.4
373.95,8198.3
376.01,8301.5
378.07,8487.5
380.13,8499.7
382.19,8341.8
384.25,8118.9
386.31,8016.0
388.36,7965.1
390.42,7960.2
392.47,7951.8
394.53,7981.3
396.58,8050.1
398.63,8105.9
400.68,8186.6
402.73,8258.6
404.78,8333.0
406.83,8412.4
408.87,8509.4
410.92,8752.4
412.97,9275.3
415.01,10419.1
417.05,11649.6
419.1,11705.4
421.14,10789.7
423.18,9833.6
425.22,9355.7
427.25,9239.3
429.29,9271.1
431.33,9277.6
433.36,9191.6
435.4,9101.4
437.43,9040.2
439.47,9025.2
441.5,9006.2
443.53,8972.2
445.56,9037.6
447.59,9083.4
449.62,9129.8
451.64,9045.3
453.67,8869.5
455.7,8772.6
457.72,8660.0
459.74,8554.9
461.77,8484.6
463.79,8414.2
465.81,8388.7
467.83,8327.0
469.85,8292.3
471.86,8277.3
473.88,8202.8
475.9,8152.7
477.91,8120.8
479.93,8024.3
481.94,7915.5
483.95,7852.8
485.96,7758.3
487.97,7660.1
489.98,7603.8
491.99,7543.9
494.0,7477.8
496.0,7459.6
498.01,7458.7
500.01,7433.9
502.02,7432.9
504.02,7461.1
506.02,7524.5
508.02,7524.1
510.02,7569.4
512.02,7604.4
514.02,7587.7
516.01,7587.1
518.01,7562.6
520.01,7505.9
522.0,7433.7
523.99,7384.5
525.99,7307.1
527.98,7291.3
529.97,7280.6
531.96,7280.3
533.94,7285.9
535.93,7324.6
537.92,7310.2
539.9,7265.0
541.89,7205.0
543.87,7154.3
545.85,7122.6
547.84,7074.4
549.82,7014.0
551.8,7003.0
553.78,6961.9
555.75,6980.1
557.73,6963.1
559.71,6969.6
561.68,6985.1
563.66,7001.0
565.63,7027.5
567.6,7049.1
569.57,7062.4
571.54,7125.6
573.51,7260.6
575.48,7464.5
577.45,7568.2
579.41,7466.6
581.38,7228.8
583.34,7074.4
585.31,6957.3
587.27,6880.1
589.23,6860.2
591.19,6822.6
593.15,6767.4
595.11,6779.9
597.07,6778.7
599.03,6742.0
600.98,6709.0
602.94,6654.1
604.89,6630.0
606.84,6556.0
608.8,6523.5
610.75,6493.3
612.7,6452.6
614.65,6442.2
616.6,6452.0
618.54,6492.3
620.49,6576.5
622.43,6598.5
624.38,6531.5
626.32,6496.6
628.27,6471.0
630.21,6414.1
632.15,6402.4
634.09,6384.0
636.03,6400.0
637.96,6463.2
639.9,6539.5
641.84,6687.3
643.77,6803.2
645.71,6823.1
647.64,6780.2
649.57,6682.5
651.5,6640.6
653.43,6574.6
655.36,6499.7
657.29,6462.7
659.22,6382.2
661.14,6361.9
663.07,6311.3
664.99,6289.2
666.92,6250.4
668.84,6252.6
670.76,6218.2
672.68,6173.5
674.6,6168.3
676.52,6153.3
678.44,6089.3
680.35,6069.4
682.27,6064.7
684.19,6063.4
686.1,6018.5
688.01,6003.9
689.92,6070.4
691.83,6049.6
693.74,6105.2
695.65,6139.9
697.56,6180.6
699.47,6218.1
701.38,6239.9
703.28,6292.3
705.19,6308.1
707.09,6323.6
708.99,6310.8
710.89,6299.0
712.79,6246.9
714.69,6230.7
716.59,6189.4
718.49,6143.5
720.39,6111.9
722.28,6070.2
724.18,6046.9
726.07,5980.7
727.96,5992.5
729.85,5975.0
731.74,6022.2
733.63,6038.1
735.52,6080.2
737.41,6177.8
739.3,6244.5
741.18,6403.3
743.07,6588.9
744.95,6797.1
746.84,7042.6
748.72,7282.4
750.6,7374.8
752.48,7307.1
754.36,7150.1
756.24,6918.9
758.12,6734.1
759.99,6564.9
761.87,6413.8
763.74,6295.6
765.62,6224.9
767.49,6136.9
769.36,6071.1
771.23,6023.9
773.1,5969.6
774.97,5928.8
776.84,5867.5
778.7,5795.0
780.57,5765.9
782.44,5759.9
784.3,5738.1
786.16,5711.2
788.02,5684.3
789.89,5658.5
791.75,5642.1
793.6,5627.9
795.46,5568.0
797.32,5580.2
799.18,5568.1
801.03,5536.4
802.89,5557.2
804.74,5539.2
806.59,5539.8
808.44,5535.9
810.29,5553.4
812.14,5536.1
813.99,5548.8
815.84,5591.2
817.69,5582.7
819.53,5631.4
821.38,5697.2
823.22,5777.4
825.06,5819.8
826.9,5878.6
828.75,5929.2
830.59,5990.7
832.42,6026.5
834.26,6046.5
836.1,6125.8
837.93,6162.3
839.77,6269.1
841.6,6348.4
843.44,6405.8
845.27,6526.5
847.1,6628.7
848.93,6753.5
850.76,6860.3
852.59,6933.4
854.42,6984.7
856.24,6973.9
858.07,6981.4
859.89,6949.0
861.72,6946.2
863.54,6907.4
865.36,6855.8
867.18,6914.8
869.0,6907.9
870.82,6955.1
872.64,7024.3
874.45,7055.1
876.27,7109.0
878.08,7110.9
879.9,7076.7
881.71,7051.2
883.52,6966.8
885.33,6873.9
887.14,6817.2
888.95,6755.2
890.76,6726.6
892.57,6703.0
894.37,6688.5
896.18,6657.7
897.98,6585.0
899.79,6569.9
901.59,6518.7
903.39,6471.0
905.19,6436.6
906.99,6374.1
908.79,6322.7
910.58,6313.5
912.38,6294.6
914.18,6281.2
915.97,6263.1
917.76,6261.5
919.56,6247.2
921.35,6204.0
923.14,6169.3
924.93,6105.0
926.72,6087.2
928.51,6054.4
930.29,6026.0
932.08,6043.4
933.86,6035.6
935.65,6058.8
937.43,6100.2
939.21,6130.6
940.99,6194.7
942.77,6241.2
944.55,6298.8
946.33,6323.5
948.11,6363.9
949.88,6316.3
951.66,6270.6
953.43,6238.7
955.21,6188.8
956.98,6143.6
958.75,6089.7
960.52,6022.3
962.29,5961.1
964.06,5912.6
965.82,5868.6
967.59,5838.4
969.36,5808.3
971.12,5777.1
972.88,5780.2
974.65,5806.5
976.41,5811.6
978.17,5833.4
979.93,5857.7
981.69,5841.9
983.45,5868.3
985.2,5878.0
986.96,5890.8
988.71,5928.8
990.47,5937.5
992.22,5962.8
993.97,5997.5
995.72,6023.5
997.47,6146.5
999.22,6351.1
1000.97,6622.0
1002.72,6860.9
1004.46,6848.6
1006.21,6632.6
1007.95,6439.8
1009.7,6342.7
1011.44,6292.5
1013.18,6302.3
1014.92,6304.4
1016.66,6323.0
1018.4,6318.6
1020.13,6292.1
1021.87,6299.0
1023.61,6270.1
1025.34,6255.2
1027.07,6284.0
1028.81,6315.7
1030.54,6372.1
1032.27,6408.1
1034.0,6399.3
1035.73,6384.0
1037.46,6367.9
1039.18,6383.6
1040.91,6382.5
1042.63,6426.9
1044.36,6460.0
1046.08,6480.0
1047.8,6513.1
1049.52,6537.0
1051.24,6582.4
1052.96,6636.2
1054.68,6668.6
1056.4,6689.4
1058.11,6713.2
1059.83,6740.7
1061.54,6787.5
1063.26,6828.0
1064.97,6882.3
1066.68,6952.0
1068.39,7025.9
1070.1,7094.6
1071.81,7166.8
1073.51,7255.8
1075.22,7308.6
1076.93,7390.8
1078.63,7439.6
1080.33,7488.8
1082.04,7459.5
1083.74,7442.2
1085.44,7442.7
1087.14,7343.9
1088.84,7267.8
1090.53,7165.0
1092.23,7121.7
1093.93,7044.5
1095.62,6989.9
1097.32,6944.8
1099.01,6906.0
1100.7,6879.4
1102.39,6876.3
1104.08,6867.2
1105.77,6883.2
1107.46,6948.9
1109.15,6992.6
1110.83,7081.7
1112.52,7175.4
1114.2,7263.7
1115.88,7315.3
1117.57,7348.4
1119.25,7371.9
1120.93,7370.0
1122.61,7323.8
1124.28,7238.5
1125.96,7140.7
1127.64,7016.0
1129.31,6846.9
1130.99,6668.7
1132.66,6503.2
1134.33,6355.6
1136.01,6214.3
1137.68,6106.4
1139.35,6044.5
1141.01,5965.5
1142.68,5972.5
1144.35,5932.1
1146.01,5941.5
1147.68,5938.5
1149.34,5929.2
1151.01,5895.6
1152.67,5851.8
1154.33,5811.3
1155.99,5728.3
1157.65,5636.0
1159.3,5497.5
1160.96,5392.5
1162.62,5254.9
1164.27,5168.4
1165.93,5048.5
1167.58,4972.1
1169.23,4899.3
1170.88,4845.3
1172.53,4794.0
1174.18,4719.7
1175.83,4670.5
1177.48,4584.4
1179.12,4543.5
1180.77,4484.4
1182.41,4465.9
1184.06,4407.4
1185.7,4403.9
1187.34,4396.3
1188.98,4407.6
1190.62,4426.1
1192.26,4450.7
1193.9,4451.8
1195.53,4480.1
1197.17,4512.6
1198.8,4553.6
1200.44,4593.6
1202.07,4622.6
1203.7,4669.1
1205.33,4720.8
1206.96,4732.4
1208.59,4735.5
1210.22,4746.0
1211.85,4753.8
1213.47,4725.8
1215.1,4721.5
1216.72,4724.4
1218.34,4743.6
1219.96,4763.4
1221.59,4784.7
1223.21,4839.7
1224.83,4898.7
1226.44,4941.7
1228.06,4969.2
1229.68,5039.4
1231.29,5081.3
1232.91,5113.1
1234.52,5171.0
1236.13,5222.6
1237.74,5277.3
1239.35,5319.4
1240.96,5370.8
1242.57,5420.3
1244.18,5463.9
1245.78,5528.8
1247.39,5555.1
1248.99,5626.3
1250.6,5663.8
1252.2,5695.4
1253.8,5735.8
1255.4,5757.3
1257.0,5799.0
1258.6,5820.4
1260.2,5826.2
1261.8,5844.1
1263.39,5818.2
1264.99,5780.5
1266.58,5766.7
1268.17,5684.3
1269.77,5619.2
1271.36,5549.7
1272.95,5459.2
1274.54,5388.3
1276.12,5333.0
1277.71,5255.6
1279.3,5182.2
1280.88,5112.7
1282.47,5062.3
1284.05,5002.6
1285.63,4993.5
1287.21,4959.4
1288.79,4935.3
1290.37,4901.5
1291.95,4894.2
1293.53,4893.2
1295.1,4907.2
1296.68,4933.0
1298.25,4956.0
1299.83,5007.8
1301.4,5020.9
1302.97,5040.4
1304.54,5085.0
1306.11,5139.7
1307.68,5200.0
1309.25,5237.3
1310.81,5283.5
1312.38,5289.8
1313.94,5363.0
1315.51,5371.5
1317.07,5376.9
1318.63,5407.1
1320.19,5399.2
1321.75,5409.1
1323.31,5399.1
1324.87,5400.1
1326.43,5412.0
1327.98,5435.1
1329.54,5421.6
1331.09,5443.3
1332.64,5422.9
1334.2,5442.8
1335.75,5438.0
1337.3,5459.6
1338.85,5451.3
1340.4,5433.3
1341.94,5425.1
1343.49,5358.3
1345.03,5344.0
1346.58,5241.8
1348.12,5190.5
1349.66,5137.8
1351.21,5055.7
1352.75,4995.9
1354.29,4984.4
1355.82,4932.4
1357.36,4902.6
1358.9,4876.3
1360.43,4872.1
1361.97,4816.3
1363.5,4819.0
1365.03,4792.7
1366.57,4786.1
1368.1,4761.1
1369.63,4735.7
1371.16,4731.4
1372.68,4696.0
1374.21,4664.7
1375.74,4621.2
1377.26,4589.6
1378.78,4562.2
1380.31,4517.0
1381.83,4496.7
1383.35,4472.2
1384.87,4446.7
1386.39,4432.8
1387.91,4390.5
1389.42,4350.0
1390.94,4292.8
1392.46,4286.5
1393.97,4254.4
1395.48,4231.0
1397.0,4179.9
1398.51,4168.3
1400.02,4135.9
1401.53,4117.4
1403.04,4095.1
1404.54,4079.9
1406.05,4062.3
1407.55,4059.6
1409.06,4034.6
1410.56,4026.4
1412.06,4010.1
1413.57,4035.1
1415.07,4012.9
1416.57,4009.0
1418.07,4002.3
1419.56,4005.5
1421.06,3982.7
1422.56,3968.1
1424.05,3954.6
1425.54,3950.1
1427.04,3940.4
1428.53,3922.3
1430.02,3928.8
1431.51,3953.9
1433.0,3967.8
1434.49,4026.2
1435.97,4085.4
1437.46,4137.0
1438.94,4212.9
1440.43,4264.8
1441.91,4325.4
1443.39,4392.6
1444.88,4498.9
1446.36,4566.5
1447.83,4622.2
1449.31,4651.2
1450.79,4678.1
1452.27,4653.0
1453.74,4651.2
1455.22,4630.3
1456.69,4607.9
1458.16,4597.4
1459.63,4605.5
1461.1,4564.5
1462.57,4550.5
1464.04,4471.0
1465.51,4397.0
1466.98,4273.8
1468.44,4165.8
1469.91,4039.2
1471.37,3898.4
1472.83,3762.2
1474.3,3589.6
1475.76,3442.4
1477.22,3305.7
1478.67,3190.0
1480.13,3073.4
1481.59,2975.6
1483.05,2868.0
1484.5,2774.4
1485.95,2700.4
1487.41,2637.6
1488.86,2586.5
1490.31,2521.9
1491.76,2482.1
1493.21,2449.2
1494.66,2432.8
1496.11,2386.3
1497.55,2373.6
1499.0,2350.3
1500.44,2314.1
1501.88,2293.7
1503.33,2282.3
1504.77,2264.7
1506.21,2268.4
1507.65,2242.5
1509.09,2204.1
1510.52,2209.0
1511.96,2195.7
1513.4,2183.9
1514.83,2183.0
1516.26,2172.9
1517.7,2163.7
1519.13,2141.9
1520.56,2137.0
1521.99,2118.5
1523.42,2120.0
1524.85,2115.3
1526.27,2097.9
1527.7,2071.5
1529.12,2087.2
1530.55,2072.8
1531.97,2066.6
1533.39,2068.9
1534.81,2050.4
1536.23,2052.4
1537.65,2056.0
1539.07,2040.7
1540.49,2042.9
1541.9,2045.1
1543.32,2047.1
1544.73,2051.3
1546.15,2053.3
1547.56,2060.2
1548.97,2070.2
1550.38,2068.3
1551.79,2067.8
1553.2,2059.7
1554.61,2064.5
1556.01,2047.8
1557.42,2036.8
1558.82,2006.8
1560.22,1984.3
1561.63,1972.4
1563.03,1966.8
1564.43,1950.4
1565.83,1942.3
1567.23,1922.6
1568.63,1922.8
1570.02,1917.8
1571.42,1928.9
1572.81,1904.0
1574.21,1904.2
1575.6,1914.2
1576.99,1913.2
1578.38,1919.9
1579.77,1917.8
1581.16,1937.6
1582.55,1947.2
1583.94,1954.1
1585.32,1960.1
1586.71,1950.9
1588.09,1941.0
1589.47,1926.1
1590.86,1928.6
1592.24,1926.9
1593.62,1931.7
1595.0,1946.2
1596.38,1955.6
1597.75,1960.7
1599.13,1991.4
1600.51,2008.5
1601.88,2035.3
1603.25,2051.1
1604.63,2051.2
1606.0,2076.8
1607.37,2077.1
1608.74,2066.1
1610.11,2053.6
1611.47,2062.0
1612.84,2065.9
1614.21,2058.2
1615.57,2066.8
1616.93,2060.3
1618.3,2052.8
1619.66,2051.9
1621.02,2027.2
1622.38,2004.4
1623.74,1991.1
1625.1,1962.7
1626.45,1959.2
1627.81,1959.1
1629.16,1955.1
1630.52,1964.3
1631.87,1965.7
1633.22,1972.3
1634.57,1974.5
1635.92,1967.8
1637.27,1987.8
1638.62,1978.9
1639.97,2001.5
1641.32,2019.5
1642.66,2022.4
1644.01,2040.6
1645.35,2060.3
1646.69,2078.6
1648.03,2094.6
1649.37,2135.7
1650.71,2125.1
1652.05,2154.5
1653.39,2166.0
1654.73,2189.9
1656.06,2195.7
1657.4,2214.1
1658.73,2223.5
1660.06,2204.7
1661.39,2210.2
1662.72,2223.4
1664.05,2220.8
1665.38,2200.8
1666.71,2202.5
1668.04,2201.0
1669.36,2181.7
1670.69,2164.2
1672.01,2131.8
1673.34,2099.4
1674.66,2086.4
1675.98,2062.3
1677.3,2018.4
1678.62,1990.3
1679.94,1954.9
1681.25,1917.7
1682.57,1902.7
1683.88,1864.8
1685.2,1822.7
1686.51,1783.5
1687.82,1755.1
1689.14,1707.2
1690.45,1675.1
1691.76,1652.3
1693.06,1607.8
1694.37,1569.1
1695.68,1539.6
1696.98,1509.2
1698.29,1475.2
1699.59,1441.2
1700.89,1432.5
1702.2,1405.2
1703.5,1378.2
1704.8,1363.3
1706.1,1335.4
1707.39,1329.0
1708.69,1316.5
1709.99,1296.0
1711.28,1290.9
1712.57,1270.7
1713.87,1263.7
1715.16,1249.7
1716.45,1244.2
1717.74,1241.0
1719.03,1225.6
1720.32,1220.3
1721.6,1212.6
1722.89,1217.4
1724.18,1195.3
1725.46,1183.1
1726.74,1180.1
1728.03,1181.2
1729.31,1171.4
1730.59,1162.5
1731.87,1175.7
1733.15,1152.7
1734.42,1138.0
1735.7,1137.8
1736.97,1135.1
1738.25,1124.2
1739.52,1125.9
1740.79,1113.3
1742.07,1108.1
1743.34,1100.6
1744.61,1105.4
1745.88,1096.7
1747.14,1088.2
1748.41,1087.1
1749.68,1077.7
1750.94,1064.1
1752.2,1066.7
1753.47,1071.2
1754.73,1064.1
1755.99,1057.9
1757.25,1062.5
1758.51,1059.7
1759.77,1045.6
1761.02,1041.4
1762.28,1035.0
1763.54,1043.0
1764.79,1033.4
1766.04,1014.5
1767.29,1015.7
1768.55,1030.5
1769.8,1000.5
1771.05,1007.1
1772.29,996.9
1773.54,1003.1
1774.79,987.2
1776.03,980.0
1777.28,985.3
1778.52,977.7
1779.76,964.0
1781.01,967.9
1782.25,964.1
1783.49,961.9
1784.72,958.1
1785.96,937.4
1787.2,936.2
1788.43,954.9
1789.67,948.7
1790.9,937.9
1792.14,934.1
1793.37,932.3
1794.6,914.5
1795.83,919.8
1797.06,912.8
1798.28,910.3
1799.51,906.2
1800.74,903.1
1801.96,896.1
1803.19,886.2
1804.41,889.8
1805.63,879.5
1806.85,863.0
1808.07,869.3
1809.29,873.7
1810.51,864.6
1811.73,863.0
1812.94,868.1
1814.16,859.5
1815.37,847.3
1816.59,856.2
1817.8,849.4
1819.01,837.2
1820.22,836.3
1821.43,839.5
1822.64,832.3
1823.85,834.2
1825.05,823.6
1826.26,828.9
1827.46,808.9
1828.67,815.4
1829.87,811.1
1831.07,801.5
1832.27,800.7
1833.47,802.8
1834.67,795.4
1835.87,797.4
1837.07,785.5
1838.26,789.4
1839.46,779.6
1840.65,780.7
1841.85,784.9
1843.04,778.3
1844.23,774.2
1845.42,775.5
1846.61,769.3
1847.8,763.5
1848.98,765.4
1850.17,756.3
1851.35,751.8
1852.54,756.9
1853.72,759.4
1854.9,748.8
1856.09,746.3
1857.27,751.2
1858.45,729.7
1859.62,739.1
1860.8,730.4
1861.98,727.9
1863.15,717.6
1864.33,724.8
1865.5,729.4
1866.68,715.3
1867.85,716.2
1869.02,714.2
1870.19,701.6
1871.36,710.3
1872.52,697.7
1873.69,703.0
1874.86,706.2
1876.02,699.1
1877.19,701.2
1878.35,694.0
1879.51,683.5
1880.67,696.6
1881.83,688.4
1882.99,679.2
1884.15,681.1
1885.31,670.7
1886.46,660.9
1887.62,660.4
1888.77,666.2
1889.92,664.5
1891.08,660.8
1892.23,656.8
1893.38,657.9
