Wavenumber,Intensities
282.29,33025.4
284.39,33147.6
286.49,33109.8
288.59,33358.0
290.7,33391.6
292.79,33500.8
294.89,33497.8
296.99,33723.4
299.09,33919.4
301.18,33848.6
303.28,33959.4
305.37,33970.0
307.47,34117.4
309.56,34100.0
311.65,33945.0
313.74,33860.0
315.83,33898.0
317.92,34006.8
320.0,34094.6
322.09,33992.2
324.18,33929.2
326.26,34382.4
328.34,34212.4
330.43,34574.8
332.51,34728.8
334.59,34987.6
336.67,35527.6
338.75,36067.6
340.83,36716.8
342.9,37569.4
344.98,38358.6
347.05,39120.2
349.13,39838.6
351.2,40467.4
353.27,40666.2
355.35,40372.6
357.42,39939.0
359.49,39358.0
361.55,38581.0
363.62,37508.6
365.69,36751.8
367.75,35777.6
369.82,35100.0
371.88,34401.2
373.95,33957.8
376.01,33513.0
378.07,33300.6
380.13,33231.4
382.19,33075.6
384.25,33081.8
386.31,33373.4
388.36,33552.6
390.42,33216.0
392.47,33636.0
394.53,33503.8
396.58,33807.6
398.63,34195.0
400.68,34280.8
402.73,34552.4
404.78,34731.8
406.83,34887.4
408.87,34836.6
410.92,34782.6
412.97,34936.0
415.01,35091.8
417.05,35433.6
419.1,35852.6
421.14,36439.0
423.18,36772.4
425.22,36862.6
427.25,36986.6
429.29,37001.4
431.33,37012.8
433.36,37230.8
435.4,37598.6
437.43,37603.0
439.47,37703.4
441.5,37850.4
443.53,37646.2
445.56,37742.0
447.59,37804.2
449.62,37436.6
451.64,37377.4
453.67,37240.0
455.7,37033.6
457.72,36710.0
459.74,36442.6
461.77,35847.4
463.79,35796.6
465.81,35658.4
467.83,35298.2
469.85,35170.0
471.86,34754.6
473.88,34848.6
475.9,34706.6
477.91,34349.8
479.93,33996.8
481.94,33643.4
483.95,33330.2
485.96,32977.0
487.97,32694.4
489.98,32186.2
491.99,31936.0
494.0,31979.2
496.0,31776.2
498.01,31486.8
500.01,31472.6
502.02,31615.4
504.02,31680.8
506.02,31699.0
508.02,31816.6
510.02,32031.4
512.02,32100.4
514.02,32049.6
516.01,32115.8
518.01,31907.8
520.01,31395.2
522.0,31294.8
523.99,30869.0
525.99,30525.6
527.98,30483.8
529.97,30530.8
531.96,30436.8
533.94,30511.8
535.93,30645.4
537.92,30486.0
539.9,30251.6
541.89,30266.6
543.87,29798.8
545.85,29667.4
547.84,29448.8
549.82,29183.2
551.8,29176.4
553.78,29161.0
555.75,29110.8
557.73,29063.6
559.71,29130.0
561.68,29199.0
563.66,29207.4
565.63,29383.4
567.6,29107.2
569.57,28949.6
571.54,29007.0
573.51,29008.4
575.48,28773.8
577.45,28859.6
579.41,28807.2
581.38,28642.4
583.34,28536.6
585.31,28633.8
587.27,28552.0
589.23,28613.4
591.19,28601.6
593.15,28522.4
595.11,28478.4
597.07,28273.4
599.03,28338.6
600.98,28170.6
602.94,28264.2
604.89,27770.6
606.84,27674.2
608.8,27411.2
610.75,27208.6
612.7,27257.4
614.65,27029.4
616.6,27072.8
618.54,27261.0
620.49,27668.0
622.43,27789.0
624.38,27546.4
626.32,27112.4
628.27,26995.2
630.21,26929.6
632.15,26703.6
634.09,26844.2
636.03,26990.0
637.96,27160.0
639.9,27658.4
641.84,28063.8
643.77,28482.8
645.71,28508.6
647.64,28363.8
649.57,28029.4
651.5,27921.6
653.43,27598.4
655.36,27482.8
657.29,27205.6
659.22,27004.4
661.14,27003.2
663.07,26588.2
664.99,26659.2
666.92,26399.2
668.84,26404.6
670.76,26071.2
672.68,26072.6
674.6,25932.8
676.52,25882.2
678.44,25678.6
680.35,25582.8
682.27,25510.8
684.19,25358.6
686.1,25590.0
688.01,25544.2
689.92,25511.6
691.83,25503.2
693.74,25741.6
695.65,25999.2
697.56,26002.4
699.47,26284.6
701.38,26535.8
703.28,26519.2
705.19,26662.8
707.09,26899.0
708.99,26499.4
710.89,26689.2
712.79,26373.2
714.69,26104.6
716.59,25893.4
718.49,25673.4
720.39,25667.8
722.28,25342.0
724.18,25216.8
726.07,25021.0
727.96,24766.0
729.85,24750.6
731.74,24579.0
733.63,24506.8
735.52,24383.8
737.41,24543.2
739.3,24554.6
741.18,24704.8
743.07,24628.4
744.95,24484.8
746.84,24699.6
748.72,24623.0
750.6,24491.6
752.48,24689.0
754.36,24876.6
756.24,25137.8
758.12,25248.0
759.99,25237.6
761.87,25292.8
763.74,25392.2
765.62,25244.2
767.49,25266.4
769.36,24937.6
771.23,25203.0
773.1,24794.8
774.97,24593.2
776.84,24597.2
778.7,24344.4
780.57,24414.2
782.44,24149.2
784.3,24311.8
786.16,24228.8
788.02,23980.0
789.89,24059.6
791.75,23777.0
793.6,23799.0
795.46,23669.8
797.32,23646.4
799.18,23644.0
801.03,23553.0
802.89,23569.2
804.74,23771.6
806.59,23627.6
808.44,23816.6
810.29,23732.2
812.14,23694.0
813.99,23757.2
815.84,23813.6
817.69,24086.0
819.53,24194.0
821.38,24592.0
823.22,25033.0
825.06,25056.0
826.9,25293.4
828.75,25497.8
830.59,25753.8
832.42,25871.6
834.26,26150.0
836.1,26381.8
837.93,26796.2
839.77,27022.4
841.6,27234.6
843.44,27769.8
845.27,28291.0
847.1,28766.8
848.93,29157.4
850.76,29626.8
852.59,29844.6
854.42,30131.4
856.24,30249.8
858.07,29950.0
859.89,30024.2
861.72,29801.2
863.54,29742.8
865.36,29793.6
867.18,29701.6
869.0,29859.0
870.82,30015.4
872.64,30310.0
874.45,30471.2
876.27,30586.4
878.08,30509.6
879.9,30454.2
881.71,30117.0
883.52,29661.6
885.33,29427.2
887.14,29078.8
888.95,29058.6
890.76,28798.8
892.57,28733.4
894.37,28619.8
896.18,28578.8
897.98,28583.2
899.79,28475.2
901.59,28185.2
903.39,27968.2
905.19,27730.2
906.99,27406.2
908.79,27436.4
910.58,27308.2
912.38,27158.4
914.18,27750.8
915.97,27166.8
917.76,27053.8
919.56,26896.6
921.35,26740.0
923.14,26604.2
924.93,26473.8
926.72,26327.8
928.51,26226.0
930.29,25953.6
932.08,26263.0
933.86,26163.8
935.65,26189.4
937.43,26402.2
939.21,26429.6
940.99,26766.8
942.77,27081.2
944.55,26976.2
946.33,27241.4
948.11,27504.8
949.88,27356.6
951.66,27019.8
953.43,27036.2
955.21,26777.6
956.98,26478.4
958.75,26283.0
960.52,26016.4
962.29,26058.8
964.06,25517.8
965.82,25367.8
967.59,25166.6
969.36,25025.6
971.12,25210.0
972.88,25044.4
974.65,25090.8
976.41,25052.0
978.17,25033.8
979.93,25171.2
981.69,25362.6
983.45,25314.2
985.2,25406.6
986.96,25477.4
988.71,25677.8
990.47,25541.0
992.22,25690.0
993.97,25898.6
995.72,26113.6
997.47,26600.4
999.22,27559.6
1000.97,28660.0
1002.72,29709.8
1004.46,29679.4
1006.21,28537.2
1007.95,27888.2
1009.7,27448.8
1011.44,27376.8
1013.18,27358.2
1014.92,27498.2
1016.66,27368.2
1018.4,27413.8
1020.13,27427.4
1021.87,27246.0
1023.61,27383.4
1025.34,27214.0
1027.07,27238.4
1028.81,27400.0
1030.54,27598.2
1032.27,27559.6
1034.0,27817.8
1035.73,27649.8
1037.46,27599.8
1039.18,27856.4
1040.91,27675.6
1042.63,27827.6
1044.36,28050.0
1046.08,28176.2
1047.8,28215.6
1049.52,28439.8
1051.24,28708.4
1052.96,28735.6
1054.68,28926.4
1056.4,28973.6
1058.11,29189.0
1059.83,29399.4
1061.54,29409.4
1063.26,29951.4
1064.97,29896.6
1066.68,30263.6
1068.39,30361.6
1070.1,30686.6
1071.81,31018.6
1073.51,31272.0
1075.22,31708.0
1076.93,31829.4
1078.63,32266.8
1080.33,32392.8
1082.04,32314.6
1083.74,32202.6
1085.44,32012.8
1087.14,31751.8
1088.84,31439.8
1090.53,31053.6
1092.23,30727.6
1093.93,30302.2
1095.62,30218.8
1097.32,30056.2
1099.01,29982.0
1100.7,29843.0
1102.39,29765.6
1104.08,29867.2
1105.77,29986.6
1107.46,30069.2
1109.15,30282.4
1110.83,30698.0
1112.52,31069.4
1114.2,31495.6
1115.88,31672.2
1117.57,31753.0
1119.25,31623.0
1120.93,31613.2
1122.61,31485.2
1124.28,31221.0
1125.96,30592.6
1127.64,30158.8
1129.31,29575.6
1130.99,28792.0
1132.66,28006.2
1134.33,27475.2
1136.01,26923.2
1137.68,26426.6
1139.35,26493.4
1141.01,26435.6
1142.68,25857.0
1144.35,25907.0
1146.01,25821.2
1147.68,25947.2
1149.34,25836.6
1151.01,25656.6
1152.67,25311.8
1154.33,25262.4
1155.99,25106.0
1157.65,24337.4
1159.3,24059.4
1160.96,23452.0
1162.62,22959.8
1164.27,22560.0
1165.93,22175.4
1167.58,21754.2
1169.23,21496.4
1170.88,21096.0
1172.53,21037.2
1174.18,20785.8
1175.83,20419.8
1177.48,20214.0
1179.12,19908.4
1180.77,19619.6
1182.41,19444.6
1184.06,19589.0
1185.7,19511.8
1187.34,19366.8
1188.98,19462.2
1190.62,19572.4
1192.26,19610.4
1193.9,19645.8
1195.53,19664.8
1197.17,19857.8
1198.8,19992.4
1200.44,20328.2
1202.07,20422.8
1203.7,20634.8
1205.33,20871.6
1206.96,20822.2
1208.59,20944.2
1210.22,20914.2
1211.85,20820.8
1213.47,20650.8
1215.1,20803.6
1216.72,20881.4
1218.34,20906.4
1219.96,21049.2
1221.59,21222.2
1223.21,21446.6
1224.83,21654.4
1226.44,21545.2
1228.06,21945.4
1229.68,22176.2
1231.29,22410.8
1232.91,22586.4
1234.52,22878.0
1236.13,23023.6
1237.74,23140.6
1239.35,23230.4
1240.96,23647.8
1242.57,23646.6
1244.18,23912.6
1245.78,24217.6
1247.39,24375.2
1248.99,24475.8
1250.6,24709.2
1252.2,24863.8
1253.8,25014.2
1255.4,25159.0
1257.0,25175.8
1258.6,25551.0
1260.2,25401.8
1261.8,25330.2
1263.39,25192.6
1264.99,25056.8
1266.58,24887.2
1268.17,24754.2
1269.77,24536.2
1271.36,24222.2
1272.95,23944.8
1274.54,23667.8
1276.12,23274.6
1277.71,22878.0
1279.3,22663.8
1280.88,22451.8
1282.47,22239.6
1284.05,22126.8
1285.63,21815.0
1287.21,21712.8
1288.79,21671.4
1290.37,21587.0
1291.95,21608.4
1293.53,21388.2
1295.1,21620.4
1296.68,21654.4
1298.25,21739.0
1299.83,22001.6
1301.4,22034.4
1302.97,22375.6
1304.54,22307.2
1306.11,22648.6
1307.68,22839.2
1309.25,22761.8
1310.81,23321.6
1312.38,23228.6
1313.94,23560.8
1315.51,23394.2
1317.07,23633.4
1318.63,23727.8
1320.19,23799.8
1321.75,23810.2
1323.31,23734.0
1324.87,23748.2
1326.43,23658.4
1327.98,23722.2
1329.54,23690.6
1331.09,23850.8
1332.64,23900.8
1334.2,23904.8
1335.75,23954.8
1337.3,23855.2
1338.85,23937.4
1340.4,23742.0
1341.94,23620.2
1343.49,23568.2
1345.03,23256.0
1346.58,22907.6
1348.12,22739.0
1349.66,22253.8
1351.21,22248.2
1352.75,21928.0
1354.29,21778.2
1355.82,21470.0
1357.36,21511.8
1358.9,21508.8
1360.43,21286.6
1361.97,21399.8
1363.5,21125.4
1365.03,21142.8
1366.57,21169.2
1368.1,21044.0
1369.63,20807.0
1371.16,20809.6
1372.68,20656.8
1374.21,20511.6
1375.74,20241.0
1377.26,20236.0
1378.78,20095.4
1380.31,20106.2
1381.83,19941.6
1383.35,19979.6
1384.87,19763.0
1386.39,19494.8
1387.91,19565.8
1389.42,19239.8
1390.94,19135.6
1392.46,19054.4
1393.97,18743.0
1395.48,18643.8
1397.0,18630.0
1398.51,18529.0
1400.02,18387.0
1401.53,18117.0
1403.04,18344.4
1404.54,17995.4
1406.05,17945.2
1407.55,17984.4
1409.06,17957.2
1410.56,17795.4
1412.06,17845.6
1413.57,17798.6
1415.07,17654.4
1416.57,17718.0
1418.07,17907.8
1419.56,17841.8
1421.06,17837.0
1422.56,17735.6
1424.05,17561.8
1425.54,17553.2
1427.04,17526.6
1428.53,17357.8
1430.02,17643.0
1431.51,17668.6
1433.0,17740.8
1434.49,17914.8
1435.97,18152.4
1437.46,18403.6
1438.94,18691.8
1440.43,19080.4
1441.91,19240.6
1443.39,19540.4
1444.88,19820.8
1446.36,20123.0
1447.83,20410.6
1449.31,20495.8
1450.79,20648.4
1452.27,20821.8
1453.74,20573.8
1455.22,20579.4
1456.69,20295.2
1458.16,20325.0
1459.63,20152.6
1461.1,20156.2
1462.57,20046.2
1464.04,19965.0
1465.51,19552.4
1466.98,18980.0
1468.44,18482.0
1469.91,18104.4
1471.37,17356.4
1472.83,16742.2
1474.3,16144.6
1475.76,15529.6
1477.22,15057.8
1478.67,14415.6
1480.13,13943.2
1481.59,13472.2
1483.05,13077.6
1484.5,12769.8
1485.95,12369.8
1487.41,12101.0
1488.86,12066.2
1490.31,11545.6
1491.76,11399.6
1493.21,11379.6
1494.66,11117.6
1496.11,10873.0
1497.55,10835.8
1499.0,10646.2
1500.44,10468.4
1501.88,10397.8
1503.33,10445.4
1504.77,10487.2
1506.21,10379.4
1507.65,10365.0
1509.09,10198.6
1510.52,10106.2
1511.96,10166.8
1513.4,10125.8
1514.83,10052.6
1516.26,10113.0
1517.7,9999.0
1519.13,9839.6
1520.56,9878.2
1521.99,9813.6
1523.42,9847.2
1524.85,9785.6
1526.27,9872.8
1527.7,9684.6
1529.12,9618.4
1530.55,9765.2
1531.97,9652.8
1533.39,9720.2
1534.81,9515.2
1536.23,9522.2
1537.65,9626.8
1539.07,9498.0
1540.49,9525.0
1541.9,9551.6
1543.32,9760.2
1544.73,9607.6
1546.15,9636.6
1547.56,9612.4
1548.97,9688.4
1550.38,9726.6
1551.79,9720.0
1553.2,9607.0
1554.61,9622.4
1556.01,9471.8
1557.42,9462.6
1558.82,9348.0
1560.22,9309.0
1561.63,9219.8
1563.03,9245.4
1564.43,9115.2
1565.83,9103.6
1567.23,9262.4
1568.63,8933.6
1570.02,9083.8
1571.42,9133.2
1572.81,9081.8
1574.21,9104.4
1575.6,9273.8
1576.99,9190.0
1578.38,9146.0
1579.77,9123.4
1581.16,9293.6
1582.55,9386.8
1583.94,9127.2
1585.32,9335.8
1586.71,9303.4
1588.09,9123.2
1589.47,9402.6
1590.86,9171.4
1592.24,9236.6
1593.62,9187.8
1595.0,9296.6
1596.38,9206.0
1597.75,9750.8
1599.13,9410.8
1600.51,9405.8
1601.88,9700.4
1603.25,9777.8
1604.63,9784.8
1606.0,9618.4
1607.37,9659.6
1608.74,9737.6
1610.11,9677.8
1611.47,9638.4
1612.84,9827.4
1614.21,9834.4
1615.57,9724.8
1616.93,9634.4
1618.3,9844.0
1619.66,9589.0
1621.02,9354.2
1622.38,9374.8
1623.74,9435.0
1625.1,9390.6
1626.45,9110.4
1627.81,9180.4
1629.16,9015.6
1630.52,9198.8
1631.87,9103.6
1633.22,9172.0
1634.57,9278.4
1635.92,9246.2
1637.27,9409.0
1638.62,9534.8
1639.97,9440.2
1641.32,9560.0
1642.66,9555.6
1644.01,9513.2
1645.35,9715.6
1646.69,9642.2
1648.03,9830.4
1649.37,9973.2
1650.71,10086.0
1652.05,10236.4
1653.39,10256.4
1654.73,10327.8
1656.06,10261.0
1657.4,10337.0
1658.73,10291.6
1660.06,10476.6
1661.39,10387.0
1662.72,10554.2
1664.05,10383.0
1665.38,10460.0
1666.71,10339.2
1668.04,10097.2
1669.36,10166.8
1670.69,10344.6
1672.01,10055.8
1673.34,9980.8
1674.66,9853.6
1675.98,9669.6
1677.3,9714.8
1678.62,9357.4
1679.94,9322.8
1681.25,9182.0
1682.57,9082.4
1683.88,9013.2
1685.2,8678.4
1686.51,8674.6
1687.82,8527.6
1689.14,8137.0
1690.45,8370.8
1691.76,8049.6
1693.06,7965.4
1694.37,7811.8
1695.68,7594.6
1696.98,7607.6
1698.29,7608.4
1699.59,7278.2
1700.89,7121.2
1702.2,7042.0
1703.5,7046.2
1704.8,6799.0
1706.1,6780.0
1707.39,6771.8
1708.69,6790.6
1709.99,6477.8
1711.28,6558.4
1712.57,6515.8
1713.87,6602.2
1715.16,6431.4
1716.45,6305.0
1717.74,6279.6
1719.03,6424.6
1720.32,6487.0
1721.6,6267.2
1722.89,6360.8
1724.18,6153.2
1725.46,6089.6
1726.74,6177.6
1728.03,6192.8
1729.31,6088.2
1730.59,6176.2
1731.87,6035.0
1733.15,6022.2
1734.42,5895.2
1735.7,5959.8
1736.97,5950.0
1738.25,5963.0
1739.52,5861.6
1740.79,5889.8
1742.07,5877.0
1743.34,5895.2
1744.61,5782.0
1745.88,5761.0
1747.14,5792.0
1748.41,5805.0
1749.68,5748.8
1750.94,5824.8
1752.2,5717.6
1753.47,5753.6
1754.73,5568.8
1755.99,5581.0
1757.25,5617.4
1758.51,5556.6
1759.77,5683.2
1761.02,5527.8
1762.28,5701.0
1763.54,5610.6
1764.79,5615.6
1766.04,5536.0
1767.29,5437.6
1768.55,5507.2
1769.8,5438.2
1771.05,5587.6
1772.29,5328.8
1773.54,5376.0
1774.79,5401.8
1776.03,5493.6
1777.28,5475.4
1778.52,5401.6
1779.76,5235.2
1781.01,5414.0
1782.25,5198.2
1783.49,5182.2
1784.72,5309.8
1785.96,5271.2
1787.2,5265.0
1788.43,5111.6
1789.67,5330.4
1790.9,5241.4
1792.14,5251.2
1793.37,5310.6
1794.6,5262.6
1795.83,5170.8
1797.06,5076.8
1798.28,5051.8
1799.51,5067.0
1800.74,5111.4
1801.96,5021.2
1803.19,5039.4
1804.41,4945.2
1805.63,5203.6
1806.85,5101.0
1808.07,5019.6
1809.29,5036.0
1810.51,4926.2
1811.73,4886.0
1812.94,4698.6
1814.16,4907.4
1815.37,4784.4
1816.59,4839.0
1817.8,4866.2
1819.01,4880.4
1820.22,4804.0
1821.43,4842.8
1822.64,4855.8
1823.85,4760.8
1825.05,4651.2
1826.26,4785.8
1827.46,4767.4
1828.67,4630.0
1829.87,4697.2
1831.07,4691.0
1832.27,4660.4
1833.47,4639.8
1834.67,4723.4
1835.87,4593.8
1837.07,4646.8
1838.26,4710.6
1839.46,4775.2
1840.65,4659.0
1841.85,4621.8
1843.04,4637.6
1844.23,4776.0
1845.42,4591.6
1846.61,4576.6
1847.8,4621.2
1848.98,4557.4
1850.17,4459.4
1851.35,4605.2
1852.54,4466.8
1853.72,4532.2
1854.9,4502.6
1856.09,4610.6
1857.27,4535.4
1858.45,4374.4
1859.62,4439.0
1860.8,4465.6
1861.98,4635.4
1863.15,4394.2
1864.33,4407.0
1865.5,4462.4
1866.68,4285.6
1867.85,4343.8
1869.02,4256.0
1870.19,4556.6
1871.36,4281.8
1872.52,4255.8
1873.69,4204.0
1874.86,4227.8
1876.02,4328.6
1877.19,4206.2
1878.35,4153.0
1879.51,4197.4
1880.67,4265.6
1881.83,4191.2
1882.99,4241.6
1884.15,4085.0
1885.31,4135.8
1886.46,4128.2
1887.62,4198.0
1888.77,4037.2
1889.92,3975.6
1891.08,3974.2
1892.23,4284.0
1893.38,3997.6
