Wavenumber,Intensities
282.29,9085.4
284.39,9102.9
286.49,9153.3
288.59,9208.0
290.7,9198.3
292.79,9229.0
294.89,9205.8
296.99,9295.3
299.09,9316.7
301.18,9298.4
303.28,9345.9
305.37,9329.5
307.47,9400.6
309.56,9376.2
311.65,9315.9
313.74,9319.3
315.83,9312.0
317.92,9375.9
320.0,9377.1
322.09,9380.1
324.18,9355.8
326.26,9429.4
328.34,9408.9
330.43,9525.8
332.51,9544.8
334.59,9600.5
336.67,9739.6
338.75,9918.5
340.83,10034.6
342.9,10278.1
344.98,10472.0
347.05,10668.0
349.13,10862.1
351.2,11018.6
353.27,11036.3
355.35,10983.1
357.42,10867.1
359.49,10769.7
361.55,10548.1
363.62,10251.1
365.69,10051.7
367.75,9797.6
369.82,9625.2
371.88,9461.0
373.95,9346.3
376.01,9235.0
378.07,9169.3
380.13,9167.9
382.19,9120.7
384.25,9128.6
386.31,9191.5
388.36,9243.8
390.42,9151.2
392.47,9272.1
394.53,9248.2
396.58,9325.0
398.63,9385.3
400.68,9419.9
402.73,9492.9
404.78,9549.5
406.83,9579.7
408.87,9546.0
410.92,9540.3
412.97,9589.7
415.01,9627.6
417.05,9736.1
419.1,9815.6
421.14,9979.3
423.18,10048.9
425.22,10073.6
427.25,10121.9
429.29,10098.9
431.33,10107.2
433.36,10155.4
435.4,10251.0
437.43,10285.8
439.47,10289.1
441.5,10336.5
443.53,10280.3
445.56,10320.4
447.59,10313.9
449.62,10223.1
451.64,10202.1
453.67,10164.0
455.7,10131.4
457.72,10058.8
459.74,9974.6
461.77,9815.6
463.79,9809.2
465.81,9765.9
467.83,9695.9
469.85,9638.2
471.86,9547.4
473.88,9580.2
475.9,9543.7
477.91,9442.3
479.93,9340.6
481.94,9260.5
483.95,9168.5
485.96,9080.9
487.97,8986.6
489.98,8895.6
491.99,8828.3
494.0,8817.7
496.0,8773.6
498.01,8732.0
500.01,8708.5
502.02,8736.9
504.02,8750.4
506.02,8762.9
508.02,8776.4
510.02,8850.3
512.02,8879.0
514.02,8836.3
516.01,8871.7
518.01,8845.0
520.01,8687.2
522.0,8640.1
523.99,8540.7
525.99,8465.8
527.98,8453.6
529.97,8461.0
531.96,8449.9
533.94,8429.7
535.93,8463.5
537.92,8442.3
539.9,8422.5
541.89,8372.0
543.87,8278.4
545.85,8257.1
547.84,8170.3
549.82,8110.4
551.8,8111.9
553.78,8110.7
555.75,8095.8
557.73,8100.9
559.71,8093.3
561.68,8124.7
563.66,8110.8
565.63,8165.9
567.6,8099.8
569.57,8056.8
571.54,8103.8
573.51,8054.9
575.48,8017.4
577.45,8027.2
579.41,8030.7
581.38,7996.8
583.34,7935.2
585.31,7949.1
587.27,7964.4
589.23,7964.7
591.19,7981.3
593.15,7942.2
595.11,7926.2
597.07,7894.5
599.03,7905.5
600.98,7881.4
602.94,7873.5
604.89,7765.7
606.84,7713.3
608.8,7668.9
610.75,7611.6
612.7,7611.1
614.65,7586.7
616.6,7589.1
618.54,7622.4
620.49,7730.4
622.43,7753.8
624.38,7703.4
626.32,7597.7
628.27,7567.4
630.21,7511.5
632.15,7483.6
634.09,7534.0
636.03,7546.9
637.96,7584.9
639.9,7709.0
641.84,7807.3
643.77,7917.2
645.71,7943.1
647.64,7900.4
649.57,7782.8
651.5,7786.5
653.43,7727.0
655.36,7697.0
657.29,7626.6
659.22,7580.0
661.14,7530.7
663.07,7466.3
664.99,7459.5
666.92,7404.1
668.84,7417.8
670.76,7318.9
672.68,7316.5
674.6,7267.5
676.52,7290.1
678.44,7254.3
680.35,7191.2
682.27,7162.1
684.19,7118.1
686.1,7183.3
688.01,7167.5
689.92,7166.4
691.83,7171.1
693.74,7236.5
695.65,7277.1
697.56,7298.5
699.47,7375.6
701.38,7435.9
703.28,7423.1
705.19,7491.9
707.09,7540.4
708.99,7443.6
710.89,7481.3
712.79,7393.3
714.69,7327.1
716.59,7301.6
718.49,7195.0
720.39,7223.4
722.28,7135.0
724.18,7105.6
726.07,7031.6
727.96,7000.2
729.85,6970.6
731.74,6918.5
733.63,6895.0
735.52,6873.6
737.41,6948.1
739.3,6920.2
741.18,6974.5
743.07,6964.9
744.95,6909.8
746.84,6982.4
748.72,6960.4
750.6,6928.9
752.48,6961.1
754.36,7029.8
756.24,7081.7
758.12,7127.5
759.99,7111.3
761.87,7099.5
763.74,7124.7
765.62,7104.9
767.49,7114.0
769.36,7016.6
771.23,7095.1
773.1,6978.9
774.97,6939.8
776.84,6944.6
778.7,6866.4
780.57,6886.1
782.44,6821.0
784.3,6883.2
786.16,6840.3
788.02,6793.3
789.89,6805.1
791.75,6727.6
793.6,6724.9
795.46,6715.1
797.32,6723.8
799.18,6681.7
801.03,6703.6
802.89,6675.4
804.74,6709.2
806.59,6685.9
808.44,6736.6
810.29,6715.1
812.14,6711.3
813.99,6741.6
815.84,6738.3
817.69,6794.4
819.53,6844.7
821.38,6945.3
823.22,7045.5
825.06,7063.9
826.9,7119.4
828.75,7165.8
830.59,7198.6
832.42,7268.4
834.26,7306.4
836.1,7371.9
837.93,7496.3
839.77,7547.9
841.6,7615.3
843.44,7757.5
845.27,7856.2
847.1,7967.3
848.93,8072.9
850.76,8199.2
852.59,8288.9
854.42,8335.5
856.24,8367.4
858.07,8294.8
859.89,8313.0
861.72,8267.3
863.54,8214.9
865.36,8245.7
867.18,8223.4
869.0,8275.2
870.82,8297.1
872.64,8356.3
874.45,8424.5
876.27,8466.7
878.08,8450.6
879.9,8418.4
881.71,8317.3
883.52,8223.6
885.33,8165.2
887.14,8100.0
888.95,8060.1
890.76,7992.4
892.57,7984.7
894.37,7971.1
896.18,7930.7
897.98,7941.3
899.79,7919.0
901.59,7798.6
903.39,7804.5
905.19,7726.0
906.99,7621.2
908.79,7628.4
910.58,7616.3
912.38,7571.8
914.18,7733.3
915.97,7581.8
917.76,7538.3
919.56,7511.7
921.35,7458.4
923.14,7426.4
924.93,7385.3
926.72,7375.8
928.51,7341.1
930.29,7281.2
932.08,7356.3
933.86,7329.4
935.65,7311.4
937.43,7372.3
939.21,7386.6
940.99,7476.0
942.77,7545.9
944.55,7540.0
946.33,7602.0
948.11,7654.1
949.88,7624.5
951.66,7548.0
953.43,7524.1
955.21,7454.0
956.98,7420.9
958.75,7357.7
960.52,7296.4
962.29,7294.9
964.06,7148.9
965.82,7121.9
967.59,7105.4
969.36,7020.5
971.12,7056.4
972.88,7029.1
974.65,7050.6
976.41,7046.5
978.17,7033.5
979.93,7063.4
981.69,7100.7
983.45,7114.4
985.2,7136.0
986.96,7135.5
988.71,7160.3
990.47,7184.0
992.22,7207.1
993.97,7249.7
995.72,7302.5
997.47,7401.9
999.22,7655.7
1000.97,7947.8
1002.72,8202.3
1004.46,8210.6
1006.21,7927.0
1007.95,7750.8
1009.7,7668.5
1011.44,7618.5
1013.18,7608.0
1014.92,7619.8
1016.66,7625.9
1018.4,7606.8
1020.13,7660.3
1021.87,7567.1
1023.61,7608.2
1025.34,7580.4
1027.07,7576.2
1028.81,7624.3
1030.54,7703.4
1032.27,7671.5
1034.0,7746.6
1035.73,7688.8
1037.46,7686.5
1039.18,7758.3
1040.91,7702.8
1042.63,7710.6
1044.36,7791.1
1046.08,7829.4
1047.8,7842.0
1049.52,7876.9
1051.24,7936.9
1052.96,7968.2
1054.68,8016.8
1056.4,8018.7
1058.11,8082.7
1059.83,8149.9
1061.54,8138.3
1063.26,8258.8
1064.97,8271.5
1066.68,8348.9
1068.39,8392.5
1070.1,8456.0
1071.81,8543.7
1073.51,8600.9
1075.22,8702.7
1076.93,8760.2
1078.63,8864.5
1080.33,8917.2
1082.04,8869.3
1083.74,8817.2
1085.44,8810.9
1087.14,8735.3
1088.84,8658.4
1090.53,8541.1
1092.23,8481.4
1093.93,8365.9
1095.62,8342.8
1097.32,8312.3
1099.01,8269.0
1100.7,8226.2
1102.39,8227.4
1104.08,8230.8
1105.77,8277.4
1107.46,8313.8
1109.15,8373.7
1110.83,8464.6
1112.52,8546.7
1114.2,8649.1
1115.88,8705.4
1117.57,8735.7
1119.25,8690.2
1120.93,8692.5
1122.61,8653.8
1124.28,8616.4
1125.96,8424.8
1127.64,8318.7
1129.31,8180.7
1130.99,7980.0
1132.66,7773.2
1134.33,7619.9
1136.01,7502.6
1137.68,7369.8
1139.35,7369.6
1141.01,7377.2
1142.68,7229.5
1144.35,7218.9
1146.01,7229.6
1147.68,7257.0
1149.34,7213.0
1151.01,7166.4
1152.67,7083.4
1154.33,7097.4
1155.99,7038.2
1157.65,6860.4
1159.3,6742.9
1160.96,6627.1
1162.62,6490.7
1164.27,6392.2
1165.93,6300.5
1167.58,6204.3
1169.23,6125.0
1170.88,6024.0
1172.53,6010.1
1174.18,5966.8
1175.83,5882.8
1177.48,5788.3
1179.12,5724.1
1180.77,5649.6
1182.41,5618.4
1184.06,5635.9
1185.7,5620.8
1187.34,5565.8
1188.98,5612.1
1190.62,5646.2
1192.26,5641.6
1193.9,5662.3
1195.53,5647.2
1197.17,5710.7
1198.8,5717.1
1200.44,5829.7
1202.07,5852.4
1203.7,5910.4
1205.33,5956.3
1206.96,5964.0
1208.59,5992.9
1210.22,5971.2
1211.85,5941.5
1213.47,5919.9
1215.1,5945.6
1216.72,5953.7
1218.34,5969.5
1219.96,5999.0
1221.59,6062.7
1223.21,6087.5
1224.83,6150.4
1226.44,6150.8
1228.06,6243.8
1229.68,6306.9
1231.29,6352.4
1232.91,6402.8
1234.52,6485.4
1236.13,6519.2
1237.74,6500.9
1239.35,6577.2
1240.96,6667.9
1242.57,6662.2
1244.18,6739.7
1245.78,6808.5
1247.39,6858.8
1248.99,6880.5
1250.6,6940.8
1252.2,6997.3
1253.8,7005.5
1255.4,7039.7
1257.0,7043.5
1258.6,7129.7
1260.2,7102.6
1261.8,7078.5
1263.39,7052.9
1264.99,7017.7
1266.58,6985.8
1268.17,6959.2
1269.77,6873.6
1271.36,6790.2
1272.95,6716.3
1274.54,6671.3
1276.12,6573.3
1277.71,6466.8
1279.3,6429.5
1280.88,6353.8
1282.47,6287.0
1284.05,6292.9
1285.63,6199.4
1287.21,6164.9
1288.79,6144.3
1290.37,6138.6
1291.95,6159.1
1293.53,6090.9
1295.1,6148.5
1296.68,6140.9
1298.25,6184.6
1299.83,6249.5
1301.4,6260.7
1302.97,6383.2
1304.54,6304.3
1306.11,6402.9
1307.68,6437.2
1309.25,6434.1
1310.81,6575.3
1312.38,6570.5
1313.94,6625.3
1315.51,6573.1
1317.07,6634.5
1318.63,6678.2
1320.19,6701.4
1321.75,6705.6
1323.31,6699.1
1324.87,6669.3
1326.43,6689.3
1327.98,6672.5
1329.54,6677.4
1331.09,6741.2
1332.64,6702.4
1334.2,6723.5
1335.75,6711.9
1337.3,6694.3
1338.85,6719.9
1340.4,6679.3
1341.94,6641.8
1343.49,6623.1
1345.03,6565.1
1346.58,6466.0
1348.12,6412.4
1349.66,6304.3
1351.21,6299.0
1352.75,6212.7
1354.29,6175.3
1355.82,6127.7
1357.36,6105.6
1358.9,6104.4
1360.43,6066.9
1361.97,6055.4
1363.5,6041.2
1365.03,6022.9
1366.57,6029.1
1368.1,6023.3
1369.63,5928.3
1371.16,5926.8
1372.68,5883.1
1374.21,5886.6
1375.74,5801.6
1377.26,5781.2
1378.78,5774.7
1380.31,5749.9
1381.83,5709.5
1383.35,5738.9
1384.87,5671.8
1386.39,5621.5
1387.91,5610.1
1389.42,5561.8
1390.94,5519.9
1392.46,5476.8
1393.97,5424.7
1395.48,5380.7
1397.0,5385.4
1398.51,5352.0
1400.02,5314.7
1401.53,5260.9
1403.04,5314.8
1404.54,5230.0
1406.05,5234.6
1407.55,5228.2
1409.06,5234.2
1410.56,5158.3
1412.06,5197.0
1413.57,5187.0
1415.07,5140.4
1416.57,5150.3
1418.07,5193.7
1419.56,5169.2
1421.06,5165.7
1422.56,5157.9
1424.05,5134.6
1425.54,5094.9
1427.04,5127.3
1428.53,5076.1
1430.02,5148.5
1431.51,5148.7
1433.0,5167.7
1434.49,5219.3
1435.97,5266.7
1437.46,5309.1
1438.94,5401.4
1440.43,5492.5
1441.91,5544.5
1443.39,5627.9
1444.88,5697.3
1446.36,5762.1
1447.83,5807.0
1449.31,5850.1
1450.79,5880.9
1452.27,5922.5
1453.74,5843.4
1455.22,5868.7
1456.69,5810.1
1458.16,5807.4
1459.63,5759.2
1461.1,5776.5
1462.57,5745.3
1464.04,5716.1
1465.51,5606.7
1466.98,5467.4
1468.44,5353.5
1469.91,5231.1
1471.37,5054.6
1472.83,4903.4
1474.3,4761.2
1475.76,4604.2
1477.22,4482.8
1478.67,4328.3
1480.13,4200.4
1481.59,4090.6
1483.05,3970.2
1484.5,3916.8
1485.95,3805.8
1487.41,3744.0
1488.86,3724.5
1490.31,3596.7
1491.76,3568.3
1493.21,3555.4
1494.66,3472.7
1496.11,3438.7
1497.55,3426.5
1499.0,3376.3
1500.44,3327.1
1501.88,3318.4
1503.33,3318.0
1504.77,3322.7
1506.21,3307.3
1507.65,3301.6
1509.09,3265.9
1510.52,3226.4
1511.96,3233.7
1513.4,3251.5
1514.83,3239.4
1516.26,3236.0
1517.7,3201.8
1519.13,3170.3
1520.56,3167.2
1521.99,3158.4
1523.42,3173.2
1524.85,3141.1
1526.27,3191.9
1527.7,3119.5
1529.12,3119.6
1530.55,3149.0
1531.97,3146.3
1533.39,3128.5
1534.81,3095.6
1536.23,3075.4
1537.65,3110.0
1539.07,3086.9
1540.49,3073.5
1541.9,3085.7
1543.32,3134.0
1544.73,3101.5
1546.15,3116.3
1547.56,3110.4
1548.97,3133.4
1550.38,3134.6
1551.79,3122.9
1553.2,3104.6
1554.61,3114.0
1556.01,3083.7
1557.42,3072.7
1558.82,3029.0
1560.22,3038.8
1561.63,3014.7
1563.03,3017.7
1564.43,2987.7
1565.83,2977.4
1567.23,3039.5
1568.63,2931.4
1570.02,2964.8
1571.42,2984.6
1572.81,2965.6
1574.21,2991.8
1575.6,3018.4
1576.99,2992.7
1578.38,2995.6
1579.77,2976.1
1581.16,3028.6
1582.55,3065.6
1583.94,2981.5
1585.32,3030.2
1586.71,3014.9
1588.09,2984.5
1589.47,3051.9
1590.86,2991.8
1592.24,3018.4
1593.62,3007.3
1595.0,3036.7
1596.38,2999.4
1597.75,3140.6
1599.13,3044.2
1600.51,3055.2
1601.88,3143.5
1603.25,3143.0
1604.63,3148.3
1606.0,3112.6
1607.37,3129.2
1608.74,3131.2
1610.11,3135.2
1611.47,3124.6
1612.84,3146.1
1614.21,3165.3
1615.57,3116.3
1616.93,3099.7
1618.3,3173.3
1619.66,3100.9
1621.02,3025.3
1622.38,3051.9
1623.74,3056.1
1625.1,3042.7
1626.45,2969.8
1627.81,2996.0
1629.16,2963.3
1630.52,2988.2
1631.87,2963.0
1633.22,2987.7
1634.57,3014.9
1635.92,3013.1
1637.27,3047.8
1638.62,3081.4
1639.97,3063.7
1641.32,3088.3
1642.66,3088.6
1644.01,3068.3
1645.35,3130.8
1646.69,3115.3
1648.03,3154.4
1649.37,3205.5
1650.71,3215.7
1652.05,3247.4
1653.39,3277.3
1654.73,3283.1
1656.06,3278.1
1657.4,3291.5
1658.73,3267.1
1660.06,3334.5
1661.39,3291.8
1662.72,3333.8
1664.05,3291.7
1665.38,3325.5
1666.71,3276.7
1668.04,3214.9
1669.36,3223.5
1670.69,3268.4
1672.01,3202.2
1673.34,3194.9
1674.66,3166.4
1675.98,3119.9
1677.3,3125.3
1678.62,3038.9
1679.94,3037.4
1681.25,3001.7
1682.57,2951.2
1683.88,2940.5
1685.2,2868.2
1686.51,2878.6
1687.82,2827.8
1689.14,2727.6
1690.45,2788.0
1691.76,2702.0
1693.06,2686.5
1694.37,2638.8
1695.68,2590.8
1696.98,2593.9
1698.29,2600.7
1699.59,2523.3
1700.89,2474.6
1702.2,2453.0
1703.5,2455.6
1704.8,2400.1
1706.1,2399.4
1707.39,2375.6
1708.69,2388.5
1709.99,2307.0
1711.28,2330.0
1712.57,2326.9
1713.87,2337.3
1715.16,2297.0
1716.45,2260.7
1717.74,2266.9
1719.03,2282.5
1720.32,2322.2
1721.6,2258.2
1722.89,2287.1
1724.18,2225.6
1725.46,2225.2
1726.74,2234.3
1728.03,2250.6
1729.31,2213.1
1730.59,2229.1
1731.87,2207.0
1733.15,2194.4
1734.42,2174.3
1735.7,2182.2
1736.97,2189.9
1738.25,2185.6
1739.52,2157.6
1740.79,2181.3
1742.07,2152.3
1743.34,2157.2
1744.61,2147.5
1745.88,2136.7
1747.14,2143.2
1748.41,2134.2
1749.68,2128.0
1750.94,2149.1
1752.2,2119.5
1753.47,2125.6
1754.73,2082.4
1755.99,2096.5
1757.25,2104.4
1758.51,2075.9
1759.77,2117.0
1761.02,2076.8
1762.28,2118.3
1763.54,2104.1
1764.79,2090.8
1766.04,2073.0
1767.29,2050.9
1768.55,2071.8
1769.8,2054.1
1771.05,2084.4
1772.29,2031.7
1773.54,2033.9
1774.79,2032.7
1776.03,2063.4
1777.28,2052.1
1778.52,2045.5
1779.76,1983.2
1781.01,2032.4
1782.25,1996.6
1783.49,1977.2
1784.72,2022.4
1785.96,2008.1
1787.2,1998.8
1788.43,1977.9
1789.67,2026.0
1790.9,1982.1
1792.14,1991.9
1793.37,2017.9
1794.6,2001.1
1795.83,1990.5
1797.06,1957.6
1798.28,1961.8
1799.51,1959.0
1800.74,1958.4
1801.96,1951.9
1803.19,1950.8
1804.41,1933.8
1805.63,1997.8
1806.85,1966.6
1808.07,1940.9
1809.29,1943.2
1810.51,1937.2
1811.73,1916.3
1812.94,1866.2
1814.16,1914.6
1815.37,1889.2
1816.59,1889.1
1817.8,1894.7
1819.01,1921.1
1820.22,1877.9
1821.43,1903.6
1822.64,1905.6
1823.85,1876.6
1825.05,1857.3
1826.26,1887.1
1827.46,1877.1
1828.67,1849.7
1829.87,1853.5
1831.07,1855.1
1832.27,1853.8
1833.47,1847.7
1834.67,1863.6
1835.87,1842.9
1837.07,1849.3
1838.26,1864.1
1839.46,1882.0
1840.65,1851.6
1841.85,1845.5
1843.04,1856.2
1844.23,1879.1
1845.42,1838.2
1846.61,1845.3
1847.8,1837.5
1848.98,1825.4
1850.17,1805.6
1851.35,1840.6
1852.54,1806.0
1853.72,1819.1
1854.9,1807.9
1856.09,1831.9
1857.27,1818.9
1858.45,1782.2
1859.62,1797.0
1860.8,1808.6
1861.98,1840.9
1863.15,1783.2
1864.33,1796.6
1865.5,1793.0
1866.68,1768.0
1867.85,1777.2
1869.02,1752.1
1870.19,1827.9
1871.36,1755.9
1872.52,1751.3
1873.69,1737.7
1874.86,1739.6
1876.02,1762.3
1877.19,1732.3
1878.35,1721.2
1879.51,1742.5
1880.67,1753.6
1881.83,1739.6
1882.99,1744.6
1884.15,1702.5
1885.31,1725.5
1886.46,1720.5
1887.62,1723.6
1888.77,1698.7
1889.92,1667.0
1891.08,1680.6
1892.23,1766.1
1893.38,1687.6
