Wavenumber,Intensities
282.29,4412.2
284.39,4433.4
286.49,4413.6
288.59,4469.0
290.7,4438.0
292.79,4444.0
294.89,4442.0
296.99,4497.0
299.09,4519.4
301.18,4483.0
303.28,4534.0
305.37,4534.6
307.47,4555.0
309.56,4549.8
311.65,4519.4
313.74,4489.6
315.83,4515.6
317.92,4549.8
320.0,4536.6
322.09,4562.6
324.18,4513.6
326.26,4601.4
328.34,4535.2
330.43,4601.4
332.51,4619.6
334.59,4636.2
336.67,4705.2
338.75,4771.2
340.83,4837.4
342.9,4946.0
344.98,5035.8
347.05,5134.6
349.13,5205.0
351.2,5309.8
353.27,5312.0
355.35,5273.4
357.42,5214.4
359.49,5151.8
361.55,5110.8
363.62,4947.0
365.69,4836.0
367.75,4735.8
369.82,4653.8
371.88,4591.4
373.95,4534.4
376.01,4494.2
378.07,4482.0
380.13,4461.4
382.19,4419.2
384.25,4415.2
386.31,4476.2
388.36,4520.0
390.42,4432.0
392.47,4523.0
394.53,4479.8
396.58,4526.2
398.63,4588.0
400.68,4544.4
402.73,4579.2
404.78,4597.6
406.83,4647.6
408.87,4648.8
410.92,4635.4
412.97,4684.0
415.01,4719.6
417.05,4872.2
419.1,4842.6
421.14,4869.4
423.18,4872.4
425.22,4868.6
427.25,4901.0
429.29,4867.0
431.33,4860.4
433.36,4904.4
435.4,4979.4
437.43,4971.8
439.47,4938.4
441.5,4970.2
443.53,4916.2
445.56,4967.6
447.59,5011.4
449.62,4923.8
451.64,4915.6
453.67,4915.6
455.7,4914.2
457.72,4864.0
459.74,4825.6
461.77,4734.2
463.79,4748.6
465.81,4754.0
467.83,4699.4
469.85,4683.2
471.86,4609.0
473.88,4662.2
475.9,4662.6
477.91,4600.6
479.93,4550.4
481.94,4497.2
483.95,4473.0
485.96,4438.8
487.97,4413.8
489.98,4333.2
491.99,4309.2
494.0,4323.4
496.0,4314.2
498.01,4252.6
500.01,4231.4
502.02,4286.8
504.02,4277.2
506.02,4278.6
508.02,4280.0
510.02,4334.8
512.02,4369.0
514.02,4313.6
516.01,4365.2
518.01,4329.0
520.01,4202.6
522.0,4287.0
523.99,4181.0
525.99,4144.2
527.98,4283.0
529.97,4332.8
531.96,4205.6
533.94,4158.6
535.93,4154.0
537.92,4139.6
539.9,4085.2
541.89,4109.4
543.87,4060.6
545.85,4027.4
547.84,4015.8
549.82,3972.4
551.8,4018.0
553.78,4023.6
555.75,3978.0
557.73,4000.0
559.71,3982.4
561.68,4025.0
563.66,3991.4
565.63,4047.0
567.6,3953.4
569.57,3941.2
571.54,3996.2
573.51,3996.8
575.48,3954.8
577.45,3955.0
579.41,3950.4
581.38,3934.6
583.34,3902.0
585.31,3949.6
587.27,3911.2
589.23,3940.0
591.19,3953.4
593.15,3934.6
595.11,3935.2
597.07,3894.2
599.03,3910.4
600.98,3895.8
602.94,3952.6
604.89,3841.2
606.84,3851.6
608.8,3809.2
610.75,3792.8
612.7,3806.8
614.65,3785.0
616.6,3780.6
618.54,3781.2
620.49,3883.4
622.43,3873.0
624.38,3828.4
626.32,3763.2
628.27,3748.4
630.21,3744.6
632.15,3713.0
634.09,3754.6
636.03,3762.4
637.96,3790.4
639.9,3859.4
641.84,3886.0
643.77,3921.6
645.71,3922.2
647.64,3943.8
649.57,3858.6
651.5,3894.4
653.43,3838.4
655.36,3832.0
657.29,3812.6
659.22,3766.0
661.14,3766.0
663.07,3709.0
664.99,3744.0
666.92,3691.8
668.84,3704.6
670.76,3646.0
672.68,3645.4
674.6,3649.2
676.52,3642.4
678.44,3615.8
680.35,3605.8
682.27,3573.0
684.19,3561.8
686.1,3603.2
688.01,3602.6
689.92,3627.2
691.83,3585.0
693.74,3652.0
695.65,3665.8
697.56,3633.0
699.47,3687.8
701.38,3751.0
703.28,3699.8
705.19,3734.2
707.09,3804.8
708.99,3718.0
710.89,3763.8
712.79,3703.8
714.69,3690.0
716.59,3634.0
718.49,3624.8
720.39,3644.6
722.28,3589.2
724.18,3575.4
726.07,3557.2
727.96,3533.6
729.85,3538.2
731.74,3518.4
733.63,3479.6
735.52,3467.6
737.41,3514.4
739.3,3484.2
741.18,3539.8
743.07,3507.0
744.95,3481.2
746.84,3544.4
748.72,3478.0
750.6,3463.6
752.48,3488.8
754.36,3524.4
756.24,3598.8
758.12,3589.2
759.99,3587.6
761.87,3580.0
763.74,3624.8
765.62,3582.4
767.49,3630.0
769.36,3531.2
771.23,3606.6
773.1,3520.8
774.97,3513.2
776.84,3520.8
778.7,3464.4
780.57,3487.4
782.44,3437.0
784.3,3502.4
786.16,3502.0
788.02,3416.6
789.89,3445.6
791.75,3404.6
793.6,3422.0
795.46,3408.4
797.32,3384.2
799.18,3379.6
801.03,3412.2
802.89,3406.0
804.74,3427.8
806.59,3384.2
808.44,3421.8
810.29,3435.0
812.14,3408.4
813.99,3421.8
815.84,3423.6
817.69,3471.4
819.53,3492.0
821.38,3538.4
823.22,3566.6
825.06,3581.4
826.9,3610.4
828.75,3631.0
830.59,3655.8
832.42,3649.0
834.26,3712.0
836.1,3755.2
837.93,3802.6
839.77,3812.4
841.6,3834.4
843.44,3892.0
845.27,3950.4
847.1,4003.6
848.93,4073.4
850.76,4123.0
852.59,4122.2
854.42,4183.6
856.24,4193.4
858.07,4098.0
859.89,4121.6
861.72,4100.8
863.54,4119.2
865.36,4118.4
867.18,4084.8
869.0,4161.6
870.82,4156.2
872.64,4202.0
874.45,4200.2
876.27,4233.8
878.08,4214.0
879.9,4224.6
881.71,4180.6
883.52,4113.4
885.33,4065.2
887.14,4008.4
888.95,4053.0
890.76,4002.8
892.57,4024.0
894.37,3998.6
896.18,3981.0
897.98,3989.2
899.79,4012.8
901.59,3953.6
903.39,3942.8
905.19,3893.4
906.99,3843.4
908.79,3852.6
910.58,3851.8
912.38,3815.4
914.18,3967.2
915.97,3817.6
917.76,3817.0
919.56,3794.8
921.35,3779.6
923.14,3740.2
924.93,3744.8
926.72,3743.8
928.51,3727.2
930.29,3672.8
932.08,3759.2
933.86,3721.8
935.65,3713.6
937.43,3740.2
939.21,3726.6
940.99,3793.4
942.77,3813.2
944.55,3801.8
946.33,3834.4
948.11,3889.0
949.88,3859.4
951.66,3825.4
953.43,3808.6
955.21,3781.2
956.98,3781.8
958.75,3744.0
960.52,3692.2
962.29,3750.8
964.06,3625.8
965.82,3640.8
967.59,3587.0
969.36,3556.4
971.12,3649.6
972.88,3582.4
974.65,3598.4
976.41,3601.8
978.17,3589.0
979.93,3599.2
981.69,3645.4
983.45,3636.8
985.2,3656.6
986.96,3659.0
988.71,3670.4
990.47,3659.0
992.22,3684.6
993.97,3677.8
995.72,3715.8
997.47,3782.0
999.22,3922.4
1000.97,4013.6
1002.72,4144.8
1004.46,4158.6
1006.21,3963.2
1007.95,3933.6
1009.7,3866.2
1011.44,3876.4
1013.18,3879.0
1014.92,3907.4
1016.66,3858.8
1018.4,3874.8
1020.13,3896.0
1021.87,3877.6
1023.61,3887.4
1025.34,3880.0
1027.07,3849.8
1028.81,3908.8
1030.54,3889.0
1032.27,3898.4
1034.0,3952.8
1035.73,3901.4
1037.46,3885.0
1039.18,3942.2
1040.91,3938.2
1042.63,3908.8
1044.36,3966.6
1046.08,3961.6
1047.8,3955.0
1049.52,4015.8
1051.24,4040.0
1052.96,4029.6
1054.68,4075.0
1056.4,4066.8
1058.11,4123.0
1059.83,4139.6
1061.54,4102.4
1063.26,4220.8
1064.97,4163.2
1066.68,4226.4
1068.39,4199.4
1070.1,4275.6
1071.81,4316.4
1073.51,4332.8
1075.22,4391.0
1076.93,4397.2
1078.63,4444.0
1080.33,4510.8
1082.04,4485.8
1083.74,4431.0
1085.44,4429.8
1087.14,4395.4
1088.84,4372.2
1090.53,4291.4
1092.23,4265.6
1093.93,4228.2
1095.62,4186.8
1097.32,4183.8
1099.01,4208.0
1100.7,4128.8
1102.39,4154.2
1104.08,4172.8
1105.77,4199.6
1107.46,4198.8
1109.15,4207.4
1110.83,4282.6
1112.52,4310.4
1114.2,4379.6
1115.88,4401.0
1117.57,4412.8
1119.25,4363.6
1120.93,4395.4
1122.61,4350.8
1124.28,4357.0
1125.96,4242.2
1127.64,4218.0
1129.31,4165.6
1130.99,4046.2
1132.66,3948.2
1134.33,3887.4
1136.01,3841.2
1137.68,3785.0
1139.35,3804.6
1141.01,3839.0
1142.68,3712.0
1144.35,3728.8
1146.01,3710.4
1147.68,3750.2
1149.34,3717.2
1151.01,3703.6
1152.67,3646.8
1154.33,3665.0
1155.99,3643.6
1157.65,3558.0
1159.3,3518.6
1160.96,3457.0
1162.62,3402.2
1164.27,3359.8
1165.93,3296.0
1167.58,3262.6
1169.23,3235.8
1170.88,3161.4
1172.53,3169.0
1174.18,3138.0
1175.83,3092.4
1177.48,3065.8
1179.12,3040.0
1180.77,2992.8
1182.41,2957.8
1184.06,3018.0
1185.7,3015.2
1187.34,2974.2
1188.98,2986.8
1190.62,3014.8
1192.26,3018.8
1193.9,3012.6
1195.53,3009.0
1197.17,3041.6
1198.8,3040.0
1200.44,3107.0
1202.07,3128.8
1203.7,3146.4
1205.33,3166.0
1206.96,3149.6
1208.59,3186.4
1210.22,3145.6
1211.85,3143.4
1213.47,3108.4
1215.1,3152.6
1216.72,3155.4
1218.34,3184.8
1219.96,3161.8
1221.59,3203.8
1223.21,3236.8
1224.83,3250.4
1226.44,3216.2
1228.06,3295.0
1229.68,3295.8
1231.29,3347.0
1232.91,3341.6
1234.52,3418.8
1236.13,3428.0
1237.74,3402.2
1239.35,3420.4
1240.96,3495.0
1242.57,3474.4
1244.18,3510.8
1245.78,3555.6
1247.39,3586.8
1248.99,3559.4
1250.6,3595.2
1252.2,3615.2
1253.8,3628.4
1255.4,3658.8
1257.0,3657.2
1258.6,3718.0
1260.2,3713.6
1261.8,3671.0
1263.39,3652.2
1264.99,3624.0
1266.58,3623.4
1268.17,3618.0
1269.77,3579.8
1271.36,3544.2
1272.95,3502.2
1274.54,3501.0
1276.12,3441.0
1277.71,3392.4
1279.3,3377.2
1280.88,3336.8
1282.47,3314.2
1284.05,3312.6
1285.63,3274.6
1287.21,3282.4
1288.79,3249.6
1290.37,3245.6
1291.95,3274.8
1293.53,3224.6
1295.1,3272.4
1296.68,3235.2
1298.25,3286.0
1299.83,3322.6
1301.4,3284.6
1302.97,3370.4
1304.54,3327.8
1306.11,3390.2
1307.68,3400.8
1309.25,3364.4
1310.81,3489.6
1312.38,3436.4
1313.94,3503.8
1315.51,3435.8
1317.07,3469.0
1318.63,3521.4
1320.19,3532.2
1321.75,3510.2
1323.31,3511.6
1324.87,3518.6
1326.43,3489.6
1327.98,3504.0
1329.54,3504.0
1331.09,3542.0
1332.64,3520.8
1334.2,3516.8
1335.75,3563.2
1337.3,3508.0
1338.85,3543.8
1340.4,3535.0
1341.94,3489.8
1343.49,3511.0
1345.03,3441.8
1346.58,3388.0
1348.12,3382.6
1349.66,3324.8
1351.21,3340.0
1352.75,3309.6
1354.29,3268.6
1355.82,3255.8
1357.36,3258.0
1358.9,3256.4
1360.43,3223.0
1361.97,3252.0
1363.5,3214.6
1365.03,3212.4
1366.57,3213.8
1368.1,3208.6
1369.63,3173.6
1371.16,3182.6
1372.68,3149.4
1374.21,3141.8
1375.74,3101.0
1377.26,3144.0
1378.78,3088.0
1380.31,3100.0
1381.83,3084.4
1383.35,3130.6
1384.87,3057.6
1386.39,3017.2
1387.91,3065.8
1389.42,3018.0
1390.94,2999.8
1392.46,2983.0
1393.97,2935.2
1395.48,2921.8
1397.0,2943.4
1398.51,2934.0
1400.02,2890.4
1401.53,2865.4
1403.04,2915.6
1404.54,2845.6
1406.05,2849.6
1407.55,2869.2
1409.06,2870.0
1410.56,2841.2
1412.06,2858.6
1413.57,2837.4
1415.07,2823.8
1416.57,2819.0
1418.07,2873.0
1419.56,2863.4
1421.06,2829.6
1422.56,2841.0
1424.05,2797.0
1425.54,2821.4
1427.04,2794.2
1428.53,2778.0
1430.02,2866.2
1431.51,2846.6
1433.0,2853.4
1434.49,2855.0
1435.97,2884.6
1437.46,2930.6
1438.94,2949.6
1440.43,2994.4
1441.91,3016.4
1443.39,3026.2
1444.88,3091.6
1446.36,3119.2
1447.83,3148.8
1449.31,3142.8
1450.79,3171.6
1452.27,3205.6
1453.74,3148.8
1455.22,3195.8
1456.69,3126.8
1458.16,3117.6
1459.63,3112.2
1461.1,3118.2
1462.57,3103.8
1464.04,3122.2
1465.51,3061.4
1466.98,2971.6
1468.44,2924.8
1469.91,2912.6
1471.37,2795.6
1472.83,2741.6
1474.3,2663.4
1475.76,2586.8
1477.22,2551.0
1478.67,2457.0
1480.13,2419.8
1481.59,2355.0
1483.05,2312.0
1484.5,2289.8
1485.95,2230.6
1487.41,2216.8
1488.86,2220.8
1490.31,2109.2
1491.76,2137.2
1493.21,2137.4
1494.66,2061.8
1496.11,2040.8
1497.55,2047.4
1499.0,2016.4
1500.44,1989.8
1501.88,1999.0
1503.33,1995.8
1504.77,2027.2
1506.21,2007.2
1507.65,2027.0
1509.09,1980.4
1510.52,1951.6
1511.96,1980.0
1513.4,1998.0
1514.83,1980.0
1516.26,1991.4
1517.7,1964.8
1519.13,1939.8
1520.56,1947.4
1521.99,1930.8
1523.42,1947.4
1524.85,1942.0
1526.27,1978.4
1527.7,1921.0
1529.12,1911.8
1530.55,1951.0
1531.97,1929.2
1533.39,1946.8
1534.81,1902.2
1536.23,1905.8
1537.65,1933.8
1539.07,1915.6
1540.49,1915.4
1541.9,1909.4
1543.32,1959.6
1544.73,1917.8
1546.15,1937.6
1547.56,1923.8
1548.97,1938.4
1550.38,1946.4
1551.79,1936.4
1553.2,1907.2
1554.61,1927.6
1556.01,1906.2
1557.42,1898.8
1558.82,1883.6
1560.22,1898.8
1561.63,1869.0
1563.03,1885.0
1564.43,1861.6
1565.83,1855.2
1567.23,1909.4
1568.63,1827.2
1570.02,1877.6
1571.42,1881.4
1572.81,1872.2
1574.21,1896.6
1575.6,1910.8
1576.99,1905.6
1578.38,1880.8
1579.77,1888.0
1581.16,1919.4
1582.55,1927.8
1583.94,1867.8
1585.32,1906.4
1586.71,1895.0
1588.09,1859.4
1589.47,1938.4
1590.86,1879.6
1592.24,1904.6
1593.62,1895.8
1595.0,1906.4
1596.38,1878.2
1597.75,2008.8
1599.13,1929.2
1600.51,1905.6
1601.88,1967.2
1603.25,1981.4
1604.63,1962.2
1606.0,1917.8
1607.37,1942.0
1608.74,1958.0
1610.11,1967.2
1611.47,1927.8
1612.84,1994.2
1614.21,1991.2
1615.57,1945.0
1616.93,1936.8
1618.3,1987.4
1619.66,1941.4
1621.02,1882.0
1622.38,1911.0
1623.74,1927.6
1625.1,1936.8
1626.45,1870.6
1627.81,1896.6
1629.16,1864.6
1630.52,1895.8
1631.87,1868.4
1633.22,1879.8
1634.57,1910.2
1635.92,1896.4
1637.27,1930.0
1638.62,1954.2
1639.97,1923.0
1641.32,1950.4
1642.66,1936.8
1644.01,1914.0
1645.35,1965.4
1646.69,1918.4
1648.03,1957.2
1649.37,1986.8
1650.71,2002.6
1652.05,2024.6
1653.39,2028.6
1654.73,2047.4
1656.06,2031.4
1657.4,2030.0
1658.73,2014.0
1660.06,2068.2
1661.39,2025.6
1662.72,2075.8
1664.05,2022.4
1665.38,2067.2
1666.71,2018.6
1668.04,1980.0
1669.36,1997.2
1670.69,2041.0
1672.01,1988.2
1673.34,2001.2
1674.66,1990.4
1675.98,1942.8
1677.3,1980.0
1678.62,1907.0
1679.94,1913.4
1681.25,1898.6
1682.57,1885.8
1683.88,1888.4
1685.2,1827.2
1686.51,1850.2
1687.82,1830.4
1689.14,1763.4
1690.45,1841.0
1691.76,1776.6
1693.06,1765.2
1694.37,1746.0
1695.68,1717.8
1696.98,1741.6
1698.29,1753.6
1699.59,1682.4
1700.89,1666.4
1702.2,1663.6
1703.5,1670.0
1704.8,1621.6
1706.1,1640.6
1707.39,1633.0
1708.69,1633.0
1709.99,1567.0
1711.28,1607.2
1712.57,1604.2
1713.87,1626.2
1715.16,1585.2
1716.45,1564.6
1717.74,1563.0
1719.03,1593.4
1720.32,1622.4
1721.6,1575.2
1722.89,1602.4
1724.18,1545.8
1725.46,1550.8
1726.74,1567.0
1728.03,1578.2
1729.31,1543.2
1730.59,1584.4
1731.87,1546.2
1733.15,1541.2
1734.42,1510.0
1735.7,1536.4
1736.97,1543.0
1738.25,1540.2
1739.52,1515.2
1740.79,1541.0
1742.07,1537.2
1743.34,1538.0
1744.61,1511.4
1745.88,1512.6
1747.14,1525.8
1748.41,1523.8
1749.68,1513.6
1750.94,1535.8
1752.2,1506.2
1753.47,1514.4
1754.73,1473.2
1755.99,1487.8
1757.25,1494.6
1758.51,1490.2
1759.77,1513.8
1761.02,1480.4
1762.28,1540.2
1763.54,1499.2
1764.79,1517.6
1766.04,1489.4
1767.29,1479.4
1768.55,1492.2
1769.8,1482.4
1771.05,1515.2
1772.29,1471.0
1773.54,1482.4
1774.79,1488.4
1776.03,1499.2
1777.28,1497.6
1778.52,1488.0
1779.76,1438.6
1781.01,1490.0
1782.25,1459.0
1783.49,1450.8
1784.72,1487.8
1785.96,1472.0
1787.2,1471.0
1788.43,1444.6
1789.67,1495.4
1790.9,1464.4
1792.14,1477.8
1793.37,1480.2
1794.6,1482.6
1795.83,1468.2
1797.06,1437.2
1798.28,1445.4
1799.51,1443.2
1800.74,1459.2
1801.96,1440.2
1803.19,1447.2
1804.41,1424.4
1805.63,1499.8
1806.85,1473.4
1808.07,1460.0
1809.29,1457.8
1810.51,1446.0
1811.73,1434.0
1812.94,1386.0
1814.16,1437.8
1815.37,1401.2
1816.59,1415.0
1817.8,1436.2
1819.01,1444.0
1820.22,1418.8
1821.43,1432.6
1822.64,1433.2
1823.85,1414.2
1825.05,1394.4
1826.26,1412.0
1827.46,1412.0
1828.67,1398.2
1829.87,1400.6
1831.07,1399.8
1832.27,1396.8
1833.47,1397.6
1834.67,1415.0
1835.87,1386.2
1837.07,1400.4
1838.26,1416.6
1839.46,1435.4
1840.65,1414.2
1841.85,1400.6
1843.04,1413.8
1844.23,1447.0
1845.42,1394.4
1846.61,1402.8
1847.8,1405.2
1848.98,1399.2
1850.17,1372.4
1851.35,1409.6
1852.54,1379.2
1853.72,1402.2
1854.9,1389.2
1856.09,1431.0
1857.27,1400.0
1858.45,1377.2
1859.62,1389.8
1860.8,1400.0
1861.98,1433.4
1863.15,1376.4
1864.33,1383.8
1865.5,1396.2
1866.68,1355.8
1867.85,1378.0
1869.02,1358.0
1870.19,1427.2
1871.36,1358.0
1872.52,1360.4
1873.69,1353.4
1874.86,1343.8
1876.02,1381.0
1877.19,1345.4
1878.35,1342.6
1879.51,1356.8
1880.67,1368.6
1881.83,1358.0
1882.99,1357.2
1884.15,1329.2
1885.31,1343.6
1886.46,1341.2
1887.62,1366.4
1888.77,1320.0
1889.92,1300.6
1891.08,1307.6
1892.23,1395.4
1893.38,1317.8
