Wavenumber,Intensities
282.29,10519.0
284.39,10428.2
286.49,10220.0
288.59,10447.2
290.69,10194.0
292.79,10219.0
294.89,10017.2
296.99,10438.6
299.08,10466.0
301.18,10101.4
303.28,10295.6
305.37,10243.4
307.46,10543.4
309.55,10385.4
311.65,10117.4
313.74,9964.0
315.83,10125.2
317.91,10248.8
320.0,10293.4
322.09,10250.2
324.17,10018.6
326.26,10630.8
328.34,10236.6
330.42,10570.0
332.51,10432.0
334.59,10393.8
336.67,10631.4
338.75,10773.6
340.82,10872.2
342.9,11294.4
344.98,11366.4
347.05,11563.2
349.13,11877.0
351.2,12159.2
353.27,12227.0
355.34,12032.6
357.41,11924.6
359.48,11701.4
361.55,11878.6
363.62,11116.0
365.69,11126.8
367.75,10742.8
369.82,10732.4
371.88,10522.8
373.94,10647.4
376.01,10350.2
378.07,10352.2
380.13,10314.2
382.19,10079.4
384.24,9933.0
386.3,10276.0
388.36,10595.0
390.41,9825.8
392.47,10577.6
394.52,10283.8
396.58,10519.8
398.63,10691.4
400.68,10180.8
402.73,10225.2
404.78,10392.2
406.82,10615.8
408.87,10628.2
410.92,10510.6
412.96,10794.0
415.01,10651.4
417.05,10845.0
419.09,10639.8
421.13,11095.0
423.17,11123.0
425.21,11143.2
427.25,11261.0
429.29,11208.8
431.33,11239.6
433.36,11508.0
435.4,11767.6
437.43,11534.6
439.46,11292.8
441.5,11483.4
443.53,11021.0
445.56,11303.0
447.59,11530.4
449.61,11010.6
451.64,11286.8
453.67,11220.2
455.69,11342.4
457.72,11167.0
459.74,11155.4
461.76,10607.4
463.78,11073.4
465.81,11135.8
467.82,10844.8
469.84,10746.8
471.86,10274.0
473.88,10813.2
475.89,10774.2
477.91,10477.4
479.92,10290.6
481.94,10202.0
483.95,10198.0
485.96,9991.2
487.97,10042.2
489.98,9622.2
491.99,9558.6
493.99,9991.8
496.0,9826.6
498.01,9361.2
500.01,9171.4
502.01,9426.4
504.02,9264.4
506.02,9071.8
508.02,8979.2
510.02,9269.2
512.02,9264.6
514.02,9095.8
516.01,9487.0
518.01,9421.8
520.0,8825.6
522.0,9207.8
523.99,8856.6
525.98,8676.0
527.97,8621.4
529.96,8761.0
531.95,8542.6
533.94,8437.0
535.93,8553.2
537.92,8391.2
539.9,8267.0
541.89,8525.0
543.87,8166.6
545.85,8210.6
547.83,8151.6
549.81,7823.6
551.79,8147.4
553.77,8121.2
555.75,8016.0
557.73,7982.8
559.7,7939.4
561.68,8144.4
563.65,8057.2
565.63,8339.6
567.6,7769.4
569.57,7617.0
571.54,8003.2
573.51,8015.4
575.48,7802.0
577.44,7954.6
579.41,7952.8
581.38,7800.4
583.34,7583.4
585.3,7798.4
587.27,7658.6
589.23,7805.8
591.19,7892.4
593.15,7804.4
595.11,7782.4
597.07,7653.4
599.02,7857.4
600.98,7826.2
602.93,8355.0
604.89,7762.0
606.84,7728.2
608.79,7606.8
610.74,7451.4
612.7,7735.4
614.64,7456.0
616.59,7326.8
618.54,7341.2
620.49,7666.8
622.43,7617.6
624.38,7411.0
626.32,7129.0
628.26,7301.0
630.2,7228.0
632.15,7022.4
634.08,7308.4
636.02,7453.4
637.96,7436.8
639.9,7701.0
641.83,7540.4
643.77,7677.6
645.7,7604.6
647.64,7783.2
649.57,7508.2
651.5,7720.2
653.43,7562.8
655.36,7644.2
657.29,7578.2
659.21,7468.6
661.14,7570.4
663.07,7091.4
664.99,7284.2
666.91,7072.6
668.84,7175.6
670.76,6809.6
672.68,6904.6
674.6,6969.8
676.52,7042.0
678.43,6995.2
680.35,6890.2
682.27,6805.8
684.18,6590.8
686.1,7156.0
688.01,6974.6
689.92,6959.2
691.83,6837.0
693.74,7032.0
695.65,7128.4
697.56,6847.6
699.47,7126.2
701.37,7329.0
703.28,7020.8
705.18,7360.2
707.09,7702.4
708.99,7058.8
710.89,7625.8
712.79,7149.8
714.69,7065.4
716.59,6975.8
718.49,6847.4
720.38,7106.6
722.28,6925.6
724.17,7011.4
726.07,6983.6
727.96,6683.4
729.85,6887.0
731.74,6709.4
733.63,6533.4
735.52,6509.6
737.41,6727.4
739.3,6704.0
741.18,6994.2
743.07,6800.4
744.95,6452.2
746.83,6933.4
748.72,6649.4
750.6,6461.0
752.48,6567.6
754.36,6749.8
756.24,6967.6
758.11,6907.4
759.99,6886.2
761.87,6828.4
763.74,7140.8
765.61,6915.0
767.49,7172.0
769.36,6690.2
771.23,7310.0
773.1,6679.0
774.97,6599.2
776.83,6805.8
778.7,6466.2
780.57,6658.4
782.43,6445.8
784.3,6901.6
786.16,6858.2
788.02,6520.4
789.88,6785.2
791.74,6445.2
793.6,6594.6
795.46,6553.8
797.32,6542.4
799.17,6588.6
801.03,6576.4
802.88,6553.6
804.74,6763.4
806.59,6498.2
808.44,6879.4
810.29,6658.2
812.14,6503.0
813.99,6576.4
815.84,6505.4
817.68,6745.8
819.53,6722.4
821.37,7015.4
823.22,7234.2
825.06,6902.2
826.9,6862.2
828.74,6836.2
830.58,7002.6
832.42,6870.2
834.26,6961.4
836.1,7166.6
837.93,7501.2
839.77,7281.2
841.6,7072.8
843.43,7291.0
845.27,7559.8
847.1,7623.4
848.93,7681.4
850.76,7825.4
852.59,7761.0
854.41,7991.4
856.24,7973.0
858.06,7622.2
859.89,7837.0
861.71,7617.6
863.54,7704.8
865.36,7762.4
867.18,7455.8
869.0,7822.4
870.82,7767.2
872.63,7887.2
874.45,7964.8
876.27,8046.4
878.08,8173.4
879.89,8328.6
881.71,8096.6
883.52,7944.2
885.33,7914.4
887.14,7690.4
888.95,7881.8
890.76,7491.8
892.56,7572.8
894.37,7598.4
896.18,7461.2
897.98,7785.4
899.78,7834.8
901.59,7436.0
903.39,7509.0
905.19,7313.8
906.99,6876.2
908.78,7062.6
910.58,7054.0
912.38,6931.2
914.17,8130.8
915.97,6990.8
917.76,6947.8
919.55,6900.0
921.35,6745.8
923.14,6721.4
924.93,6769.6
926.71,6922.8
928.5,6903.6
930.29,6549.4
932.08,7165.6
933.86,6804.8
935.64,6672.2
937.43,6821.8
939.21,6578.0
940.99,6966.2
942.77,6976.0
944.55,6659.2
946.33,7011.0
948.1,7441.4
949.88,7306.4
951.66,6918.8
953.43,7237.0
955.2,7006.2
956.98,7030.4
958.75,6915.0
960.52,6676.6
962.29,7286.0
964.05,6460.4
965.82,6553.6
967.59,6388.8
969.35,6142.0
971.12,6757.2
972.88,6371.4
974.64,6492.4
976.41,6485.2
978.17,6324.4
979.93,6613.0
981.69,6826.2
983.44,6679.8
985.2,6834.4
986.96,6764.8
988.71,6901.2
990.46,6682.0
992.22,6709.4
993.97,6825.6
995.72,6843.0
997.47,6926.4
999.22,7365.4
1000.97,7490.0
1002.71,7912.4
1004.46,7952.4
1006.21,7029.0
1007.95,7154.4
1009.69,6987.2
1011.44,7038.2
1013.18,6942.4
1014.92,7168.6
1016.66,7046.4
1018.39,7177.2
1020.13,7435.6
1021.87,7193.8
1023.6,7562.0
1025.34,7368.2
1027.07,7176.4
1028.8,7246.8
1030.54,7316.0
1032.27,7001.0
1034.0,7580.4
1035.73,7257.0
1037.45,7246.2
1039.18,7683.0
1040.91,7408.8
1042.63,7334.4
1044.35,7682.2
1046.08,7546.8
1047.8,7411.8
1049.52,7603.8
1051.24,7729.2
1052.96,7596.4
1054.68,7673.8
1056.39,7537.8
1058.11,7687.4
1059.83,7932.0
1061.54,7642.8
1063.25,8298.0
1064.97,7767.0
1066.68,8118.6
1068.39,7779.2
1070.1,7915.4
1071.8,8074.8
1073.51,8071.0
1075.22,8260.8
1076.92,8253.2
1078.63,8683.0
1080.33,8999.6
1082.03,8733.2
1083.74,8708.6
1085.44,8562.0
1087.14,8653.6
1088.83,8555.4
1090.53,8265.4
1092.23,8047.4
1093.92,7767.8
1095.62,7735.4
1097.31,7818.8
1099.01,7928.8
1100.7,7634.2
1102.39,7651.6
1104.08,7663.4
1105.77,7841.6
1107.46,7589.4
1109.14,7613.8
1110.83,7814.2
1112.51,7886.4
1114.2,8230.4
1115.88,8336.6
1117.56,8343.4
1119.24,8055.6
1120.92,8289.6
1122.6,8424.0
1124.28,8553.0
1125.96,8033.6
1127.64,8083.2
1129.31,8016.8
1130.99,7614.4
1132.66,7261.6
1134.33,7162.0
1136.0,7013.2
1137.67,6742.6
1139.34,7232.8
1141.01,7600.2
1142.68,6622.0
1144.35,6883.8
1146.01,6687.4
1147.68,7057.0
1149.34,6941.8
1151.0,6883.2
1152.66,6568.0
1154.33,6914.6
1155.99,7079.2
1157.64,6504.4
1159.3,6660.8
1160.96,6436.8
1162.61,6341.6
1164.27,6314.2
1165.92,6233.2
1167.58,6060.8
1169.23,6029.8
1170.88,5628.6
1172.53,5919.8
1174.18,5893.8
1175.83,5691.0
1177.47,5648.6
1179.12,5469.4
1180.77,5205.8
1182.41,5233.2
1184.05,5605.8
1185.7,5583.4
1187.34,5319.2
1188.98,5517.2
1190.62,5611.2
1192.26,5617.4
1193.89,5477.6
1195.53,5306.8
1197.17,5511.0
1198.8,5390.8
1200.43,5767.8
1202.07,5696.2
1203.7,5827.0
1205.33,5911.2
1206.96,5630.8
1208.59,5873.4
1210.22,5733.6
1211.84,5601.0
1213.47,5351.0
1215.09,5646.2
1216.72,5741.8
1218.34,5609.6
1219.96,5611.2
1221.58,5800.4
1223.2,5944.6
1224.82,5933.2
1226.44,5495.8
1228.06,5906.0
1229.67,5947.2
1231.29,6073.0
1232.9,6085.4
1234.52,6363.8
1236.13,6272.8
1237.74,6196.6
1239.35,6088.4
1240.96,6467.8
1242.57,6183.0
1244.18,6458.8
1245.78,6567.6
1247.39,6685.0
1248.99,6477.8
1250.6,6668.4
1252.2,6830.2
1253.8,6780.8
1255.4,6865.0
1257.0,6747.2
1258.6,7263.6
1260.2,7050.2
1261.79,6919.8
1263.39,6816.4
1264.98,6729.0
1266.58,6825.6
1268.17,6833.0
1269.76,6880.2
1271.35,6716.4
1272.94,6649.4
1274.53,6644.8
1276.12,6410.8
1277.71,6059.4
1279.29,6150.4
1280.88,6184.6
1282.46,6104.8
1284.05,6264.4
1285.63,5886.0
1287.21,5969.0
1288.79,5929.4
1290.37,5972.8
1291.95,6052.6
1293.52,5732.8
1295.1,5994.2
1296.68,5812.4
1298.25,5962.8
1299.82,6209.0
1301.4,5867.8
1302.97,6403.0
1304.54,5864.8
1306.11,6241.6
1307.68,6228.6
1309.24,5847.6
1310.81,6628.8
1312.38,6190.0
1313.94,6533.2
1315.51,6029.6
1317.07,6314.2
1318.63,6534.0
1320.19,6506.0
1321.75,6516.4
1323.31,6461.0
1324.87,6462.4
1326.42,6298.0
1327.98,6439.8
1329.53,6323.4
1331.09,6719.4
1332.64,6528.4
1334.19,6489.4
1335.75,6586.2
1337.3,6363.0
1338.84,6596.0
1340.39,6451.2
1341.94,6357.2
1343.49,6465.6
1345.03,6328.0
1346.58,6065.4
1348.12,6194.4
1349.66,5784.6
1351.2,6272.0
1352.74,5966.6
1354.28,5991.0
1355.82,5755.6
1357.36,5987.0
1358.9,6051.6
1360.43,5866.4
1361.97,6174.0
1363.5,5865.6
1365.03,5899.2
1366.56,6136.6
1368.09,6096.4
1369.62,5690.2
1371.15,5882.2
1372.68,5863.4
1374.21,5795.0
1375.73,5515.8
1377.26,5786.8
1378.78,5668.4
1380.3,5929.4
1381.83,5788.8
1383.35,6069.0
1384.87,5788.2
1386.39,5568.8
1387.9,5838.4
1389.42,5600.6
1390.94,5573.4
1392.45,5540.0
1393.97,5381.0
1395.48,5290.6
1396.99,5617.4
1398.5,5574.8
1400.01,5372.6
1401.52,5205.2
1403.03,5732.8
1404.54,5216.2
1406.05,5204.4
1407.55,5361.6
1409.06,5426.8
1410.56,5225.6
1412.06,5351.6
1413.56,5303.2
1415.06,5035.4
1416.56,5170.8
1418.06,5565.6
1419.56,5490.6
1421.06,5377.2
1422.55,5415.2
1424.05,5208.8
1425.54,5250.6
1427.03,5271.2
1428.53,4965.0
1430.02,5556.6
1431.51,5358.2
1433.0,5291.0
1434.48,5222.8
1435.97,5334.0
1437.46,5368.8
1438.94,5353.2
1440.43,5607.0
1441.91,5474.8
1443.39,5502.6
1444.87,5586.2
1446.35,5638.6
1447.83,5803.8
1449.31,5663.8
1450.79,5792.0
1452.26,6238.6
1453.74,5715.4
1455.21,6088.2
1456.69,5637.2
1458.16,5815.8
1459.63,5691.0
1461.1,5890.6
1462.57,5963.6
1464.04,6120.6
1465.51,5917.8
1466.97,5542.4
1468.44,5535.8
1469.9,5662.2
1471.37,5242.0
1472.83,5094.8
1474.29,5136.4
1475.75,4861.6
1477.21,4979.4
1478.67,4543.0
1480.13,4521.6
1481.59,4444.2
1483.04,4308.4
1484.5,4460.2
1485.95,4220.0
1487.4,4169.0
1488.86,4552.2
1490.31,3846.4
1491.76,4041.0
1493.21,4233.6
1494.66,3813.8
1496.1,3738.0
1497.55,3847.2
1498.99,3670.4
1500.44,3488.2
1501.88,3529.8
1503.32,3725.0
1504.77,4017.2
1506.21,3879.8
1507.65,3990.0
1509.08,3726.6
1510.52,3681.6
1511.96,3847.2
1513.39,3889.8
1514.83,3856.2
1516.26,3951.2
1517.69,3832.2
1519.13,3631.4
1520.56,3717.2
1521.99,3691.4
1523.42,3855.6
1524.84,3732.4
1526.27,4050.8
1527.7,3678.4
1529.12,3622.6
1530.54,3926.8
1531.97,3862.6
1533.39,3952.8
1534.81,3631.6
1536.23,3604.4
1537.65,3877.6
1539.07,3714.4
1540.48,3638.4
1541.9,3744.0
1543.32,4094.2
1544.73,3823.0
1546.14,3835.2
1547.56,3785.8
1548.97,3915.8
1550.38,4018.2
1551.79,4064.4
1553.19,3836.8
1554.6,4007.0
1556.01,3807.8
1557.41,3921.4
1558.82,3781.0
1560.22,3848.0
1561.62,3697.8
1563.03,3818.4
1564.43,3712.6
1565.83,3697.4
1567.23,4122.2
1568.62,3473.8
1570.02,3824.6
1571.42,3907.8
1572.81,3860.2
1574.2,3999.2
1575.6,4218.0
1576.99,4097.8
1578.38,3958.2
1579.77,3864.2
1581.16,4206.2
1582.55,4288.4
1583.93,3744.2
1585.32,4021.8
1586.7,3984.6
1588.09,3728.0
1589.47,4442.6
1590.85,3939.0
1592.24,4151.2
1593.62,4096.4
1595.0,4235.8
1596.37,3889.8
1597.75,4936.4
1599.13,4167.0
1600.5,4048.0
1601.88,4476.0
1603.25,4422.2
1604.62,4354.6
1605.99,4019.6
1607.36,4105.6
1608.73,4271.0
1610.1,4343.2
1611.47,4226.8
1612.84,4609.6
1614.2,4596.0
1615.57,4268.8
1616.93,4166.0
1618.29,4707.6
1619.66,4369.0
1621.02,4050.0
1622.38,4251.4
1623.74,4469.2
1625.09,4505.6
1626.45,4098.6
1627.81,4280.8
1629.16,3992.4
1630.52,4291.6
1631.87,4129.8
1633.22,4251.2
1634.57,4354.6
1635.92,4249.8
1637.27,4450.8
1638.62,4709.8
1639.97,4422.8
1641.31,4548.2
1642.66,4451.4
1644.0,4179.2
1645.35,4496.4
1646.69,4196.6
1648.03,4419.8
1649.37,4543.8
1650.71,4581.6
1652.05,4685.6
1653.39,4667.2
1654.72,4636.2
1656.06,4513.2
1657.39,4490.4
1658.73,4360.6
1660.06,4714.6
1661.39,4430.0
1662.72,4774.4
1664.05,4441.2
1665.38,4724.4
1666.71,4425.2
1668.03,4048.2
1669.36,4256.6
1670.69,4673.2
1672.01,4333.2
1673.33,4401.0
1674.65,4303.2
1675.98,4189.0
1677.3,4479.2
1678.62,3990.6
1679.93,4179.8
1681.25,4110.6
1682.57,4082.0
1683.88,4186.8
1685.2,3771.6
1686.51,4031.8
1687.82,3953.4
1689.13,3474.4
1690.44,4135.8
1691.75,3732.6
1693.06,3761.6
1694.37,3724.0
1695.68,3572.6
1696.98,3800.2
1698.29,4043.2
1699.59,3550.2
1700.89,3447.8
1702.19,3464.4
1703.49,3586.8
1704.79,3271.0
1706.09,3428.8
1707.39,3431.0
1708.69,3565.4
1709.98,3037.6
1711.28,3308.0
1712.57,3324.8
1713.86,3522.8
1715.16,3209.4
1716.45,3069.8
1717.74,3085.8
1719.03,3406.6
1720.31,3572.2
1721.6,3197.2
1722.89,3491.8
1724.17,3075.8
1725.46,3020.4
1726.74,3248.0
1728.02,3332.4
1729.3,3081.2
1730.58,3358.0
1731.86,3163.0
1733.14,3088.6
1734.42,2960.4
1735.7,3084.2
1736.97,3127.2
1738.25,3192.6
1739.52,3039.4
1740.79,3170.0
1742.06,3135.6
1743.33,3189.6
1744.6,3016.4
1745.87,3004.4
1747.14,3091.8
1748.41,3098.4
1749.67,3062.0
1750.94,3258.0
1752.2,3027.0
1753.46,3107.0
1754.73,2779.6
1755.99,2878.4
1757.25,2970.2
1758.51,2877.4
1759.76,3214.6
1761.02,2892.0
1762.28,3273.0
1763.53,3065.8
1764.79,3169.0
1766.04,3025.0
1767.29,2867.8
1768.54,3066.0
1769.79,2994.4
1771.04,3274.8
1772.29,2847.2
1773.54,2967.2
1774.79,3003.6
1776.03,3200.2
1777.27,3182.6
1778.52,3106.2
1779.76,2740.8
1781.0,3148.0
1782.24,2837.4
1783.48,2756.8
1784.72,3095.4
1785.96,3012.6
1787.2,2984.6
1788.43,2760.6
1789.67,3224.4
1790.9,2984.4
1792.13,3049.2
1793.36,3239.8
1794.6,3172.2
1795.83,3046.0
1797.05,2879.0
1798.28,2879.8
1799.51,2955.6
1800.74,3028.6
1801.96,2905.0
1803.18,2961.8
1804.41,2841.2
1805.63,3364.2
1806.85,3189.6
1808.07,3034.6
1809.29,3098.6
1810.51,2977.2
1811.73,2916.2
1812.94,2492.4
1814.16,2978.4
1815.37,2752.4
1816.59,2823.6
1817.8,3000.6
1819.01,3046.2
1820.22,2840.4
1821.43,3002.0
1822.64,3012.8
1823.85,2820.6
1825.05,2733.8
1826.26,2954.8
1827.46,2931.4
1828.67,2739.2
1829.87,2806.2
1831.07,2843.4
1832.27,2828.2
1833.47,2811.6
1834.67,2967.2
1835.87,2753.8
1837.06,2867.0
1838.26,3032.6
1839.46,3183.4
1840.65,2974.6
1841.84,2877.8
1843.03,3023.4
1844.23,3246.6
1845.42,2927.6
1846.61,2974.0
1847.79,3002.0
1848.98,2920.2
1850.17,2718.6
1851.35,3072.8
1852.54,2852.4
1853.72,2954.8
1854.9,2890.4
1856.08,3147.8
1857.26,3038.0
1858.44,2745.6
1859.62,2863.8
1860.8,2979.2
1861.98,3291.4
1863.15,2851.8
1864.33,2902.4
1865.5,3016.4
1866.67,2714.2
1867.84,2875.4
1869.01,2705.0
1870.18,3288.0
1871.35,2770.4
1872.52,2763.6
1873.69,2685.4
1874.85,2695.2
1876.02,2901.2
1877.18,2682.4
1878.35,2631.6
1879.51,2772.8
1880.67,2911.6
1881.83,2744.8
1882.99,2905.2
1884.15,2581.4
1885.3,2691.4
1886.46,2724.8
1887.61,2877.0
1888.77,2566.4
1889.92,2438.0
1891.07,2459.2
1892.23,3145.4
1893.38,2576.4
