Wavenumber,Intensities
282.29,10778.0
284.39,10666.6
286.49,10435.6
288.59,10721.2
290.7,10431.0
292.79,10419.8
294.89,10258.8
296.99,10608.0
299.09,10707.2
301.18,10299.6
303.28,10537.6
305.37,10499.6
307.47,10780.2
309.56,10622.6
311.65,10336.0
313.74,10091.8
315.83,10338.4
317.92,10448.6
320.0,10500.8
322.09,10455.0
324.18,10238.4
326.26,10810.6
328.34,10415.2
330.43,10805.2
332.51,10629.2
334.59,10579.2
336.67,10801.0
338.75,10930.0
340.83,11099.4
342.9,11431.2
344.98,11527.4
347.05,11719.8
349.13,11981.6
351.2,12238.4
353.27,12296.2
355.35,12096.4
357.42,11991.4
359.49,11801.6
361.55,11965.0
363.62,11203.4
365.69,11198.2
367.75,10867.0
369.82,10886.0
371.88,10708.8
373.95,10818.6
376.01,10510.6
378.07,10521.6
380.13,10477.4
382.19,10265.4
384.25,10169.2
386.31,10435.8
388.36,10745.6
390.42,10060.4
392.47,10762.0
394.53,10441.8
396.58,10700.8
398.63,10858.4
400.68,10404.6
402.73,10416.0
404.78,10619.4
406.83,10784.0
408.87,10800.0
410.92,10700.6
412.97,10972.2
415.01,10873.8
417.05,11017.2
419.1,10853.2
421.14,11264.0
423.18,11283.8
425.22,11256.4
427.25,11415.8
429.29,11355.2
431.33,11346.2
433.36,11620.2
435.4,11878.4
437.43,11650.0
439.47,11428.2
441.5,11619.6
443.53,11186.2
445.56,11405.4
447.59,11662.0
449.62,11182.0
451.64,11362.8
453.67,11340.8
455.7,11448.0
457.72,11323.2
459.74,11287.4
461.77,10731.0
463.79,11210.2
465.81,11228.4
467.83,10983.4
469.85,10882.2
471.86,10433.4
473.88,10888.8
475.9,10931.8
477.91,10642.2
479.93,10425.8
481.94,10302.0
483.95,10323.8
485.96,10172.6
487.97,10232.0
489.98,9792.2
491.99,9734.6
494.0,10135.0
496.0,9940.4
498.01,9503.0
500.01,9332.2
502.02,9601.8
504.02,9449.2
506.02,9197.2
508.02,9111.4
510.02,9397.8
512.02,9390.8
514.02,9177.4
516.01,9617.8
518.01,9510.8
520.01,8939.0
522.0,9339.0
523.99,8938.8
525.99,8796.2
527.98,8744.4
529.97,8884.8
531.96,8653.4
533.94,8575.2
535.93,8700.2
537.92,8517.4
539.9,8420.4
541.89,8621.4
543.87,8307.0
545.85,8308.6
547.84,8295.8
549.82,7973.6
551.8,8257.8
553.78,8262.4
555.75,8200.0
557.73,8112.6
559.71,8054.4
561.68,8288.0
563.66,8184.2
565.63,8467.2
567.6,7864.2
569.57,7733.8
571.54,8086.8
573.51,8150.8
575.48,7949.4
577.45,8070.0
579.41,8058.8
581.38,7943.4
583.34,7700.2
585.31,7919.6
587.27,7800.6
589.23,7922.0
591.19,7985.4
593.15,7914.4
595.11,7917.4
597.07,7764.0
599.03,7940.4
600.98,7992.0
602.94,8433.8
604.89,7857.6
606.84,7826.2
608.8,7727.8
610.75,7611.6
612.7,7859.8
614.65,7576.6
616.6,7448.8
618.54,7480.2
620.49,7781.8
622.43,7717.2
624.38,7525.6
626.32,7234.6
628.27,7367.6
630.21,7363.6
632.15,7189.4
634.09,7424.8
636.03,7595.6
637.96,7554.6
639.9,7791.4
641.84,7692.4
643.77,7739.8
645.71,7734.4
647.64,7880.2
649.57,7567.6
651.5,7802.0
653.43,7625.8
655.36,7768.8
657.29,7711.8
659.22,7523.4
661.14,7645.0
663.07,7158.2
664.99,7364.6
666.92,7202.2
668.84,7294.0
670.76,6944.2
672.68,7033.4
674.6,7062.4
676.52,7155.0
678.44,7075.2
680.35,6973.8
682.27,6939.4
684.19,6738.0
686.1,7254.0
688.01,7062.6
689.92,7092.0
691.83,6958.6
693.74,7117.0
695.65,7250.8
697.56,6900.8
699.47,7225.0
701.38,7388.8
703.28,7104.4
705.19,7424.8
707.09,7784.8
708.99,7117.6
710.89,7691.2
712.79,7194.6
714.69,7095.0
716.59,7051.8
718.49,6924.8
720.39,7196.6
722.28,6987.4
724.18,7082.8
726.07,7066.8
727.96,6764.8
729.85,6951.6
731.74,6772.4
733.63,6637.2
735.52,6568.2
737.41,6874.8
739.3,6797.6
741.18,7046.6
743.07,6898.4
744.95,6514.2
746.84,7006.2
748.72,6744.4
750.6,6554.4
752.48,6642.4
754.36,6812.6
756.24,7041.2
758.12,6985.8
759.99,6923.6
761.87,6894.8
763.74,7241.8
765.62,6985.0
767.49,7206.0
769.36,6736.0
771.23,7342.6
773.1,6759.6
774.97,6676.8
776.84,6879.4
778.7,6500.6
780.57,6752.0
782.44,6514.4
784.3,6987.2
786.16,6951.6
788.02,6607.6
789.89,6863.6
791.75,6521.2
793.6,6677.4
795.46,6621.8
797.32,6588.0
799.18,6655.4
801.03,6636.4
802.89,6590.8
804.74,6855.0
806.59,6553.8
808.44,6968.0
810.29,6729.0
812.14,6585.0
813.99,6629.6
815.84,6574.8
817.69,6762.4
819.53,6787.0
821.38,7063.2
823.22,7274.4
825.06,6935.8
826.9,6914.4
828.75,6963.6
830.59,7032.0
832.42,6903.6
834.26,7026.8
836.1,7167.0
837.93,7482.6
839.77,7300.0
841.6,7096.0
843.44,7320.6
845.27,7580.0
847.1,7625.8
848.93,7662.4
850.76,7845.2
852.59,7710.0
854.42,7976.0
856.24,7953.4
858.07,7586.2
859.89,7775.4
861.72,7577.8
863.54,7599.4
865.36,7730.6
867.18,7408.2
869.0,7740.6
870.82,7704.6
872.64,7856.8
874.45,7918.4
876.27,8017.6
878.08,8108.2
879.9,8172.0
881.71,7980.6
883.52,7830.0
885.33,7783.2
887.14,7616.8
888.95,7763.6
890.76,7400.4
892.57,7475.6
894.37,7499.8
896.18,7363.8
897.98,7681.4
899.79,7747.6
901.59,7326.8
903.39,7474.2
905.19,7251.6
906.99,6833.0
908.79,6997.2
910.58,7011.8
912.38,6850.6
914.18,8085.4
915.97,7004.0
917.76,6907.0
919.56,6836.0
921.35,6685.4
923.14,6655.6
924.93,6701.8
926.72,6852.2
928.51,6826.4
930.29,6541.8
932.08,7129.2
933.86,6799.2
935.65,6597.8
937.43,6802.2
939.21,6544.8
940.99,6921.2
942.77,6952.4
944.55,6610.0
946.33,6952.8
948.11,7426.8
949.88,7212.8
951.66,6843.0
953.43,7137.0
955.21,6944.8
956.98,6974.4
958.75,6854.6
960.52,6614.2
962.29,7227.2
964.06,6405.8
965.82,6529.6
967.59,6377.4
969.36,6125.4
971.12,6720.6
972.88,6328.0
974.65,6423.0
976.41,6450.4
978.17,6270.0
979.93,6583.2
981.69,6782.2
983.45,6651.6
985.2,6748.8
986.96,6716.2
988.71,6846.8
990.47,6622.8
992.22,6655.2
993.97,6740.6
995.72,6796.2
997.47,6901.4
999.22,7351.6
1000.97,7413.4
1002.72,7832.4
1004.46,7831.0
1006.21,6850.4
1007.95,7027.6
1009.7,6884.8
1011.44,6959.8
1013.18,6861.8
1014.92,7074.2
1016.66,6954.6
1018.4,7093.6
1020.13,7351.8
1021.87,7088.2
1023.61,7461.2
1025.34,7258.0
1027.07,7070.8
1028.81,7129.2
1030.54,7183.0
1032.27,6873.2
1034.0,7455.8
1035.73,7145.2
1037.46,7109.6
1039.18,7597.2
1040.91,7312.0
1042.63,7226.0
1044.36,7583.2
1046.08,7423.6
1047.8,7314.6
1049.52,7446.0
1051.24,7619.0
1052.96,7493.0
1054.68,7566.0
1056.4,7383.8
1058.11,7549.0
1059.83,7793.0
1061.54,7522.0
1063.26,8155.2
1064.97,7605.2
1066.68,7994.2
1068.39,7649.4
1070.1,7759.6
1071.81,7935.0
1073.51,7917.4
1075.22,8108.8
1076.93,8090.8
1078.63,8532.0
1080.33,8806.6
1082.04,8494.0
1083.74,8467.2
1085.44,8336.0
1087.14,8438.6
1088.84,8341.2
1090.53,8058.4
1092.23,7857.6
1093.93,7618.2
1095.62,7566.4
1097.32,7665.6
1099.01,7850.2
1100.7,7490.8
1102.39,7540.2
1104.08,7555.0
1105.77,7695.8
1107.46,7446.0
1109.15,7499.2
1110.83,7697.2
1112.52,7745.0
1114.2,8121.8
1115.88,8152.8
1117.57,8144.6
1119.25,7881.0
1120.93,8149.8
1122.61,8221.2
1124.28,8351.6
1125.96,7835.4
1127.64,7874.4
1129.31,7846.0
1130.99,7455.8
1132.66,7077.4
1134.33,6977.4
1136.01,6872.4
1137.68,6600.6
1139.35,7128.6
1141.01,7476.2
1142.68,6508.8
1144.35,6769.2
1146.01,6596.2
1147.68,6925.2
1149.34,6868.0
1151.01,6765.4
1152.67,6455.0
1154.33,6803.8
1155.99,6957.6
1157.65,6413.0
1159.3,6584.2
1160.96,6335.8
1162.62,6253.8
1164.27,6261.4
1165.93,6158.4
1167.58,6002.2
1169.23,5989.4
1170.88,5537.0
1172.53,5856.8
1174.18,5841.4
1175.83,5639.0
1177.48,5569.6
1179.12,5435.2
1180.77,5158.0
1182.41,5186.0
1184.06,5589.2
1185.7,5559.4
1187.34,5272.6
1188.98,5476.8
1190.62,5573.6
1192.26,5555.4
1193.9,5440.0
1195.53,5298.4
1197.17,5466.2
1198.8,5331.2
1200.44,5734.2
1202.07,5649.4
1203.7,5775.2
1205.33,5877.8
1206.96,5609.8
1208.59,5829.4
1210.22,5676.4
1211.85,5546.0
1213.47,5330.4
1215.1,5602.8
1216.72,5662.0
1218.34,5555.2
1219.96,5548.2
1221.59,5794.4
1223.21,5924.2
1224.83,5871.6
1226.44,5447.2
1228.06,5830.6
1229.68,5870.2
1231.29,6001.6
1232.91,6001.4
1234.52,6326.0
1236.13,6198.4
1237.74,6107.0
1239.35,6018.4
1240.96,6398.0
1242.57,6098.6
1244.18,6360.0
1245.78,6486.8
1247.39,6594.2
1248.99,6384.4
1250.6,6591.8
1252.2,6749.8
1253.8,6699.8
1255.4,6737.2
1257.0,6649.4
1258.6,7122.0
1260.2,6894.0
1261.8,6775.4
1263.39,6675.8
1264.99,6631.8
1266.58,6675.8
1268.17,6689.4
1269.77,6747.2
1271.36,6593.0
1272.95,6528.0
1274.54,6568.8
1276.12,6288.8
1277.71,5949.2
1279.3,6082.8
1280.88,6095.0
1282.47,5997.0
1284.05,6178.6
1285.63,5819.4
1287.21,5898.8
1288.79,5836.8
1290.37,5937.0
1291.95,5977.2
1293.53,5634.8
1295.1,5918.8
1296.68,5742.4
1298.25,5878.6
1299.83,6141.2
1301.4,5779.2
1302.97,6323.8
1304.54,5801.2
1306.11,6148.2
1307.68,6134.2
1309.25,5753.4
1310.81,6538.2
1312.38,6092.6
1313.94,6457.8
1315.51,5943.8
1317.07,6194.4
1318.63,6439.2
1320.19,6423.8
1321.75,6431.4
1323.31,6393.4
1324.87,6373.0
1326.43,6161.0
1327.98,6344.2
1329.54,6241.0
1331.09,6646.2
1332.64,6408.8
1334.2,6368.2
1335.75,6476.4
1337.3,6270.4
1338.85,6461.2
1340.4,6338.6
1341.94,6251.0
1343.49,6354.6
1345.03,6180.0
1346.58,5972.6
1348.12,6122.4
1349.66,5697.0
1351.21,6159.4
1352.75,5859.6
1354.29,5906.6
1355.82,5675.0
1357.36,5858.0
1358.9,5994.2
1360.43,5768.0
1361.97,6075.4
1363.5,5762.4
1365.03,5799.0
1366.57,6043.4
1368.1,5998.8
1369.63,5586.2
1371.16,5786.6
1372.68,5731.2
1374.21,5702.4
1375.74,5391.8
1377.26,5713.2
1378.78,5558.0
1380.31,5830.0
1381.83,5689.6
1383.35,5968.0
1384.87,5703.8
1386.39,5502.0
1387.91,5742.8
1389.42,5546.8
1390.94,5486.0
1392.46,5473.0
1393.97,5288.6
1395.48,5236.2
1397.0,5508.0
1398.51,5492.8
1400.02,5312.8
1401.53,5150.2
1403.04,5663.0
1404.54,5109.4
1406.05,5149.6
1407.55,5308.4
1409.06,5347.0
1410.56,5136.0
1412.06,5290.0
1413.57,5199.8
1415.07,4952.0
1416.57,5158.0
1418.07,5480.8
1419.56,5444.2
1421.06,5319.0
1422.56,5297.6
1424.05,5131.4
1425.54,5175.2
1427.04,5200.4
1428.53,4873.2
1430.02,5529.2
1431.51,5293.8
1433.0,5206.6
1434.49,5174.8
1435.97,5271.2
1437.46,5279.4
1438.94,5287.8
1440.43,5564.4
1441.91,5380.4
1443.39,5418.4
1444.88,5510.4
1446.36,5559.6
1447.83,5710.6
1449.31,5594.6
1450.79,5688.8
1452.27,6098.0
1453.74,5618.8
1455.22,5976.6
1456.69,5529.4
1458.16,5698.6
1459.63,5578.8
1461.1,5776.2
1462.57,5828.6
1464.04,6051.0
1465.51,5842.2
1466.98,5409.2
1468.44,5410.8
1469.91,5525.6
1471.37,5159.4
1472.83,5002.2
1474.3,5057.4
1475.76,4774.4
1477.22,4916.2
1478.67,4497.8
1480.13,4444.0
1481.59,4377.2
1483.05,4255.2
1484.5,4412.0
1485.95,4208.6
1487.41,4132.8
1488.86,4507.2
1490.31,3816.2
1491.76,4034.8
1493.21,4242.2
1494.66,3801.4
1496.11,3715.0
1497.55,3817.6
1499.0,3656.6
1500.44,3482.8
1501.88,3524.2
1503.33,3724.4
1504.77,3986.0
1506.21,3867.2
1507.65,3973.4
1509.09,3722.6
1510.52,3666.6
1511.96,3809.4
1513.4,3892.2
1514.83,3845.8
1516.26,3940.4
1517.7,3833.0
1519.13,3627.0
1520.56,3727.2
1521.99,3659.8
1523.42,3848.6
1524.85,3731.0
1526.27,4065.2
1527.7,3672.6
1529.12,3626.4
1530.55,3927.8
1531.97,3841.4
1533.39,3950.4
1534.81,3618.8
1536.23,3584.4
1537.65,3891.4
1539.07,3709.2
1540.49,3634.6
1541.9,3741.0
1543.32,4110.6
1544.73,3815.2
1546.15,3820.8
1547.56,3776.0
1548.97,3919.2
1550.38,4050.2
1551.79,4035.2
1553.2,3848.8
1554.61,3992.4
1556.01,3797.4
1557.42,3880.6
1558.82,3750.0
1560.22,3819.0
1561.63,3699.8
1563.03,3822.4
1564.43,3707.6
1565.83,3683.8
1567.23,4156.2
1568.63,3475.0
1570.02,3833.6
1571.42,3942.8
1572.81,3863.4
1574.21,3989.4
1575.6,4216.2
1576.99,4096.4
1578.38,3968.0
1579.77,3870.8
1581.16,4220.0
1582.55,4303.6
1583.94,3759.2
1585.32,4046.2
1586.71,3999.2
1588.09,3759.0
1589.47,4435.0
1590.86,3964.2
1592.24,4163.6
1593.62,4110.2
1595.0,4211.8
1596.38,3919.2
1597.75,4959.0
1599.13,4162.6
1600.51,4078.0
1601.88,4478.2
1603.25,4438.0
1604.63,4371.4
1606.0,4032.6
1607.37,4112.4
1608.74,4301.2
1610.11,4350.8
1611.47,4249.6
1612.84,4624.6
1614.21,4608.4
1615.57,4295.8
1616.93,4178.2
1618.3,4739.4
1619.66,4392.8
1621.02,4076.0
1622.38,4283.2
1623.74,4504.8
1625.1,4525.4
1626.45,4089.4
1627.81,4303.0
1629.16,4008.4
1630.52,4296.8
1631.87,4124.4
1633.22,4270.4
1634.57,4400.8
1635.92,4259.6
1637.27,4489.8
1638.62,4722.0
1639.97,4410.0
1641.32,4585.6
1642.66,4449.2
1644.01,4198.0
1645.35,4533.6
1646.69,4199.0
1648.03,4426.4
1649.37,4528.4
1650.71,4597.0
1652.05,4686.2
1653.39,4693.2
1654.73,4650.0
1656.06,4505.6
1657.4,4476.2
1658.73,4342.4
1660.06,4689.6
1661.39,4421.2
1662.72,4788.8
1664.05,4417.6
1665.38,4710.0
1666.71,4422.2
1668.04,4038.6
1669.36,4233.0
1670.69,4666.6
1672.01,4349.0
1673.34,4407.4
1674.66,4277.2
1675.98,4170.6
1677.3,4457.2
1678.62,3981.6
1679.94,4173.8
1681.25,4116.2
1682.57,4047.0
1683.88,4196.4
1685.2,3757.4
1686.51,4030.2
1687.82,3935.4
1689.14,3436.2
1690.45,4132.8
1691.76,3707.2
1693.06,3760.0
1694.37,3736.2
1695.68,3551.8
1696.98,3787.2
1698.29,4048.0
1699.59,3565.4
1700.89,3444.0
1702.2,3475.8
1703.5,3553.6
1704.8,3272.4
1706.1,3428.8
1707.39,3426.6
1708.69,3566.4
1709.99,3016.4
1711.28,3304.0
1712.57,3313.4
1713.87,3532.2
1715.16,3235.0
1716.45,3066.2
1717.74,3097.8
1719.03,3406.8
1720.32,3600.4
1721.6,3192.0
1722.89,3472.2
1724.18,3065.0
1725.46,3022.4
1726.74,3236.6
1728.03,3329.4
1729.31,3104.4
1730.59,3361.4
1731.87,3173.0
1733.15,3103.2
1734.42,2944.6
1735.7,3075.8
1736.97,3137.2
1738.25,3183.6
1739.52,3036.2
1740.79,3182.2
1742.07,3124.2
1743.34,3206.4
1744.61,3015.8
1745.88,2999.0
1747.14,3081.8
1748.41,3132.2
1749.68,3079.6
1750.94,3258.8
1752.2,3025.4
1753.47,3113.8
1754.73,2778.0
1755.99,2883.0
1757.25,2960.4
1758.51,2889.0
1759.77,3190.2
1761.02,2871.0
1762.28,3280.4
1763.54,3065.8
1764.79,3153.8
1766.04,3034.6
1767.29,2874.6
1768.55,3056.0
1769.8,2969.4
1771.05,3287.6
1772.29,2845.0
1773.54,2970.6
1774.79,2985.2
1776.03,3189.6
1777.28,3174.6
1778.52,3101.6
1779.76,2742.8
1781.01,3138.0
1782.25,2832.8
1783.49,2775.0
1784.72,3113.6
1785.96,3006.0
1787.2,2974.0
1788.43,2768.0
1789.67,3235.0
1790.9,2994.2
1792.14,3018.0
1793.37,3241.4
1794.6,3162.2
1795.83,3067.4
1797.06,2877.0
1798.28,2875.8
1799.51,2934.2
1800.74,3028.4
1801.96,2905.0
1803.19,2961.6
1804.41,2849.4
1805.63,3354.4
1806.85,3194.2
1808.07,3024.8
1809.29,3085.6
1810.51,2990.6
1811.73,2923.2
1812.94,2486.4
1814.16,2950.4
1815.37,2730.4
1816.59,2813.2
1817.8,2979.2
1819.01,3041.6
1820.22,2837.4
1821.43,2988.4
1822.64,3021.8
1823.85,2825.2
1825.05,2728.4
1826.26,2950.4
1827.46,2935.0
1828.67,2743.6
1829.87,2813.0
1831.07,2842.6
1832.27,2833.6
1833.47,2809.8
1834.67,2990.6
1835.87,2751.6
1837.07,2854.8
1838.26,3017.2
1839.46,3180.6
1840.65,2983.0
1841.85,2904.2
1843.04,3008.8
1844.23,3245.8
1845.42,2914.2
1846.61,2996.8
1847.8,2990.6
1848.98,2898.8
1850.17,2737.8
1851.35,3059.8
1852.54,2832.8
1853.72,2947.4
1854.9,2912.6
1856.09,3144.8
1857.27,3024.0
1858.45,2734.0
1859.62,2858.6
1860.8,2960.2
1861.98,3296.4
1863.15,2852.6
1864.33,2920.2
1865.5,2992.2
1866.68,2707.2
1867.85,2863.2
1869.02,2705.6
1870.19,3286.8
1871.36,2762.8
1872.52,2774.2
1873.69,2687.8
1874.86,2713.4
1876.02,2898.2
1877.19,2684.0
1878.35,2614.2
1879.51,2769.6
1880.67,2896.6
1881.83,2766.8
1882.99,2892.0
1884.15,2573.8
1885.31,2696.8
1886.46,2731.8
1887.62,2860.0
1888.77,2563.8
1889.92,2415.0
1891.08,2448.4
1892.23,3127.6
1893.38,2573.8
