Wavenumber,Intensities
282.29,7838.4
284.39,7855.2
286.49,7881.0
288.59,7901.6
290.7,7945.6
292.79,7969.2
294.89,7932.4
296.99,8006.2
299.09,8060.0
301.18,7992.8
303.28,8036.0
305.37,8063.4
307.47,8108.8
309.56,8085.2
311.65,8086.8
313.74,8033.0
315.83,8039.6
317.92,8070.8
320.0,8089.2
322.09,8098.0
324.18,8083.6
326.26,8140.0
328.34,8121.0
330.43,8214.6
332.51,8247.8
334.59,8304.8
336.67,8424.2
338.75,8554.6
340.83,8728.6
342.9,8901.0
344.98,9083.2
347.05,9239.6
349.13,9385.2
351.2,9550.0
353.27,9586.0
355.35,9548.6
357.42,9475.0
359.49,9320.0
361.55,9138.8
363.62,8887.4
365.69,8637.4
367.75,8466.4
369.82,8341.8
371.88,8172.6
373.95,8088.8
376.01,7933.4
378.07,7937.4
380.13,7881.0
382.19,7884.8
384.25,7872.6
386.31,7941.0
388.36,8006.6
390.42,7873.4
392.47,8029.2
394.53,7945.6
396.58,8045.8
398.63,8159.0
400.68,8142.8
402.73,8174.2
404.78,8224.2
406.83,8293.6
408.87,8316.2
410.92,8260.0
412.97,8304.6
415.01,8313.8
417.05,8465.2
419.1,8512.2
421.14,8644.6
423.18,8715.8
425.22,8727.8
427.25,8767.0
429.29,8756.6
431.33,8762.6
433.36,8862.8
435.4,8895.6
437.43,8932.6
439.47,8910.8
441.5,8950.4
443.53,8905.6
445.56,8950.4
447.59,8957.0
449.62,8864.4
451.64,8866.6
453.67,8799.2
455.7,8795.4
457.72,8716.2
459.74,8645.0
461.77,8539.4
463.79,8509.0
465.81,8458.4
467.83,8403.4
469.85,8347.4
471.86,8254.6
473.88,8294.0
475.9,8287.4
477.91,8136.8
479.93,8124.8
481.94,8009.4
483.95,7934.2
485.96,7859.2
487.97,7776.2
489.98,7686.0
491.99,7627.4
494.0,7644.2
496.0,7599.4
498.01,7533.4
500.01,7533.2
502.02,7562.2
504.02,7614.4
506.02,7581.8
508.02,7574.2
510.02,7670.0
512.02,7663.8
514.02,7641.8
516.01,7670.8
518.01,7627.4
520.01,7512.8
522.0,7506.6
523.99,7375.4
525.99,7337.0
527.98,7321.6
529.97,7333.6
531.96,7282.6
533.94,7283.8
535.93,7330.4
537.92,7297.2
539.9,7256.0
541.89,7242.4
543.87,7130.6
545.85,7101.2
547.84,7072.4
549.82,7006.4
551.8,7029.0
553.78,7000.2
555.75,6997.2
557.73,6996.4
559.71,7003.4
561.68,7004.0
563.66,7021.0
565.63,7049.4
567.6,6972.0
569.57,6948.6
571.54,6990.6
573.51,6973.0
575.48,6931.8
577.45,6926.4
579.41,6923.4
581.38,6887.2
583.34,6883.0
585.31,6883.8
587.27,6867.2
589.23,6886.8
591.19,6896.0
593.15,6888.0
595.11,6863.6
597.07,6831.6
599.03,6825.0
600.98,6791.4
602.94,6824.0
604.89,6699.0
606.84,6651.8
608.8,6613.6
610.75,6584.8
612.7,6594.6
614.65,6555.2
616.6,6548.2
618.54,6588.8
620.49,6692.6
622.43,6715.4
624.38,6656.8
626.32,6558.4
628.27,6535.6
630.21,6518.6
632.15,6484.0
634.09,6496.8
636.03,6516.4
637.96,6590.8
639.9,6682.6
641.84,6777.0
643.77,6824.0
645.71,6885.4
647.64,6836.0
649.57,6788.2
651.5,6741.8
653.43,6693.4
655.36,6634.8
657.29,6596.2
659.22,6537.0
661.14,6521.8
663.07,6441.2
664.99,6437.4
666.92,6389.8
668.84,6407.0
670.76,6333.4
672.68,6315.4
674.6,6273.2
676.52,6298.6
678.44,6229.4
680.35,6229.6
682.27,6177.0
684.19,6152.6
686.1,6227.0
688.01,6195.2
689.92,6197.6
691.83,6209.2
693.74,6259.8
695.65,6288.8
697.56,6320.0
699.47,6391.8
701.38,6435.4
703.28,6436.8
705.19,6457.2
707.09,6526.4
708.99,6430.6
710.89,6500.8
712.79,6399.6
714.69,6354.8
716.59,6315.8
718.49,6250.0
720.39,6234.6
722.28,6175.0
724.18,6152.8
726.07,6087.2
727.96,6026.0
729.85,6044.0
731.74,5982.6
733.63,5970.6
735.52,5980.8
737.41,5985.0
739.3,5989.4
741.18,6042.6
743.07,6019.8
744.95,5962.0
746.84,6076.8
748.72,6001.6
750.6,5992.6
752.48,6045.8
754.36,6068.4
756.24,6126.0
758.12,6155.6
759.99,6182.2
761.87,6167.4
763.74,6196.0
765.62,6147.8
767.49,6177.0
769.36,6102.0
771.23,6124.4
773.1,6086.4
774.97,6005.4
776.84,6017.6
778.7,5959.0
780.57,5954.4
782.44,5944.8
784.3,5962.8
786.16,5930.4
788.02,5881.6
789.89,5889.0
791.75,5820.4
793.6,5850.4
795.46,5824.6
797.32,5821.8
799.18,5794.4
801.03,5796.4
802.89,5791.4
804.74,5817.8
806.59,5798.0
808.44,5829.4
810.29,5821.0
812.14,5814.8
813.99,5836.2
815.84,5842.0
817.69,5890.6
819.53,5943.4
821.38,6020.8
823.22,6127.6
825.06,6130.8
826.9,6181.4
828.75,6217.4
830.59,6279.6
832.42,6312.0
834.26,6354.6
836.1,6432.8
837.93,6564.4
839.77,6591.0
841.6,6640.2
843.44,6790.6
845.27,6852.8
847.1,6972.8
848.93,7089.8
850.76,7167.2
852.59,7232.6
854.42,7311.6
856.24,7300.8
858.07,7248.8
859.89,7286.4
861.72,7241.0
863.54,7219.2
865.36,7217.2
867.18,7204.6
869.0,7240.8
870.82,7274.2
872.64,7332.2
874.45,7389.0
876.27,7421.0
878.08,7379.2
879.9,7373.2
881.71,7315.4
883.52,7193.0
885.33,7129.4
887.14,7043.4
888.95,7063.2
890.76,6971.2
892.57,7000.2
894.37,6978.2
896.18,6940.2
897.98,6979.2
899.79,6918.8
901.59,6846.2
903.39,6818.6
905.19,6741.4
906.99,6652.8
908.79,6692.4
910.58,6684.8
912.38,6601.4
914.18,6790.0
915.97,6626.0
917.76,6594.4
919.56,6578.6
921.35,6552.8
923.14,6482.8
924.93,6451.0
926.72,6479.2
928.51,6412.4
930.29,6381.4
932.08,6437.2
933.86,6441.2
935.65,6433.0
937.43,6467.0
939.21,6482.0
940.99,6547.6
942.77,6602.2
944.55,6600.6
946.33,6669.0
948.11,6723.6
949.88,6667.6
951.66,6591.6
953.43,6604.4
955.21,6532.4
956.98,6508.8
958.75,6449.0
960.52,6368.2
962.29,6381.4
964.06,6254.6
965.82,6255.2
967.59,6189.8
969.36,6146.6
971.12,6227.2
972.88,6152.6
974.65,6178.4
976.41,6199.2
978.17,6184.6
979.93,6199.6
981.69,6233.2
983.45,6212.8
985.2,6247.8
986.96,6295.6
988.71,6295.4
990.47,6299.4
992.22,6341.6
993.97,6388.0
995.72,6415.4
997.47,6527.0
999.22,6720.0
1000.97,7011.8
1002.72,7241.2
1004.46,7241.0
1006.21,6946.8
1007.95,6800.4
1009.7,6703.6
1011.44,6703.2
1013.18,6719.2
1014.92,6729.8
1016.66,6707.8
1018.4,6710.0
1020.13,6736.6
1021.87,6636.6
1023.61,6712.6
1025.34,6693.4
1027.07,6705.6
1028.81,6734.6
1030.54,6760.8
1032.27,6757.8
1034.0,6827.6
1035.73,6749.6
1037.46,6796.0
1039.18,6857.4
1040.91,6807.8
1042.63,6797.4
1044.36,6867.2
1046.08,6874.0
1047.8,6901.4
1049.52,6950.8
1051.24,7018.4
1052.96,7026.0
1054.68,7055.0
1056.4,7080.6
1058.11,7145.2
1059.83,7200.6
1061.54,7193.2
1063.26,7302.4
1064.97,7268.2
1066.68,7407.0
1068.39,7401.2
1070.1,7480.0
1071.81,7560.6
1073.51,7613.0
1075.22,7705.8
1076.93,7742.2
1078.63,7812.6
1080.33,7904.6
1082.04,7882.4
1083.74,7823.2
1085.44,7786.2
1087.14,7707.4
1088.84,7642.0
1090.53,7564.6
1092.23,7490.4
1093.93,7396.6
1095.62,7373.2
1097.32,7331.2
1099.01,7329.8
1100.7,7277.2
1102.39,7271.4
1104.08,7278.0
1105.77,7331.2
1107.46,7338.0
1109.15,7422.4
1110.83,7521.8
1112.52,7558.2
1114.2,7654.0
1115.88,7722.4
1117.57,7694.2
1119.25,7714.2
1120.93,7686.0
1122.61,7645.2
1124.28,7631.2
1125.96,7462.6
1127.64,7356.4
1129.31,7221.0
1130.99,7057.2
1132.66,6862.6
1134.33,6736.8
1136.01,6605.2
1137.68,6518.8
1139.35,6522.0
1141.01,6521.0
1142.68,6376.6
1144.35,6393.4
1146.01,6382.2
1147.68,6374.2
1149.34,6398.8
1151.01,6335.8
1152.67,6244.6
1154.33,6255.8
1155.99,6207.4
1157.65,6036.6
1159.3,5989.4
1160.96,5833.2
1162.62,5729.8
1164.27,5628.2
1165.93,5551.2
1167.58,5460.8
1169.23,5415.4
1170.88,5334.4
1172.53,5302.2
1174.18,5239.2
1175.83,5170.0
1177.48,5112.4
1179.12,5042.6
1180.77,4960.4
1182.41,4949.8
1184.06,4965.2
1185.7,4960.4
1187.34,4927.2
1188.98,4958.2
1190.62,4976.4
1192.26,4994.6
1193.9,4991.6
1195.53,4990.2
1197.17,5040.4
1198.8,5047.2
1200.44,5114.6
1202.07,5174.8
1203.7,5233.6
1205.33,5244.6
1206.96,5267.2
1208.59,5309.6
1210.22,5266.6
1211.85,5266.6
1213.47,5225.4
1215.1,5249.8
1216.72,5281.0
1218.34,5260.6
1219.96,5303.2
1221.59,5374.6
1223.21,5414.8
1224.83,5455.2
1226.44,5423.2
1228.06,5514.8
1229.68,5570.4
1231.29,5636.4
1232.91,5664.4
1234.52,5725.2
1236.13,5769.2
1237.74,5794.6
1239.35,5786.8
1240.96,5884.4
1242.57,5920.2
1244.18,5981.2
1245.78,6043.4
1247.39,6066.0
1248.99,6102.4
1250.6,6180.2
1252.2,6197.6
1253.8,6219.8
1255.4,6256.2
1257.0,6241.0
1258.6,6313.6
1260.2,6311.4
1261.8,6287.2
1263.39,6245.2
1264.99,6201.8
1266.58,6195.2
1268.17,6143.4
1269.77,6099.8
1271.36,6027.0
1272.95,5955.4
1274.54,5922.6
1276.12,5827.2
1277.71,5731.2
1279.3,5676.4
1280.88,5646.8
1282.47,5592.4
1284.05,5587.2
1285.63,5492.6
1287.21,5492.4
1288.79,5443.4
1290.37,5460.4
1291.95,5451.0
1293.53,5403.4
1295.1,5458.6
1296.68,5432.0
1298.25,5478.4
1299.83,5567.2
1301.4,5532.4
1302.97,5658.4
1304.54,5610.6
1306.11,5726.0
1307.68,5741.2
1309.25,5703.2
1310.81,5854.6
1312.38,5815.0
1313.94,5919.0
1315.51,5833.6
1317.07,5908.2
1318.63,5934.8
1320.19,5949.2
1321.75,5962.2
1323.31,5968.4
1324.87,5924.8
1326.43,5919.6
1327.98,5940.2
1329.54,5919.6
1331.09,5997.8
1332.64,5969.8
1334.2,5946.8
1335.75,5978.0
1337.3,5979.0
1338.85,5979.6
1340.4,5947.2
1341.94,5923.4
1343.49,5888.4
1345.03,5812.4
1346.58,5732.6
1348.12,5720.0
1349.66,5631.2
1351.21,5634.8
1352.75,5521.8
1354.29,5492.0
1355.82,5437.2
1357.36,5452.6
1358.9,5455.4
1360.43,5394.8
1361.97,5412.4
1363.5,5338.6
1365.03,5355.8
1366.57,5365.8
1368.1,5322.0
1369.63,5269.8
1371.16,5270.4
1372.68,5265.0
1374.21,5235.6
1375.74,5139.8
1377.26,5168.4
1378.78,5123.2
1380.31,5116.4
1381.83,5097.4
1383.35,5108.6
1384.87,5061.4
1386.39,5032.6
1387.91,5015.2
1389.42,4963.0
1390.94,4921.2
1392.46,4895.8
1393.97,4828.4
1395.48,4793.4
1397.0,4820.8
1398.51,4804.0
1400.02,4749.4
1401.53,4690.0
1403.04,4743.2
1404.54,4662.2
1406.05,4644.8
1407.55,4639.2
1409.06,4651.4
1410.56,4630.0
1412.06,4619.6
1413.57,4632.4
1415.07,4568.0
1416.57,4618.0
1418.07,4640.2
1419.56,4638.4
1421.06,4624.8
1422.56,4594.0
1424.05,4563.8
1425.54,4559.4
1427.04,4569.6
1428.53,4520.2
1430.02,4620.2
1431.51,4606.0
1433.0,4618.6
1434.49,4671.2
1435.97,4724.4
1437.46,4772.2
1438.94,4825.2
1440.43,4886.0
1441.91,4952.2
1443.39,5021.2
1444.88,5094.2
1446.36,5155.0
1447.83,5199.6
1449.31,5255.2
1450.79,5244.4
1452.27,5300.0
1453.74,5220.4
1455.22,5252.0
1456.69,5171.8
1458.16,5168.6
1459.63,5145.6
1461.1,5163.8
1462.57,5143.6
1464.04,5116.2
1465.51,5025.0
1466.98,4868.6
1468.44,4793.4
1469.91,4671.8
1471.37,4508.4
1472.83,4410.0
1474.3,4276.4
1475.76,4126.6
1477.22,4028.6
1478.67,3838.8
1480.13,3748.2
1481.59,3651.4
1483.05,3537.4
1484.5,3507.0
1485.95,3387.8
1487.41,3324.0
1488.86,3348.4
1490.31,3174.2
1491.76,3198.0
1493.21,3168.4
1494.66,3101.4
1496.11,3052.2
1497.55,3060.6
1499.0,3006.4
1500.44,2974.8
1501.88,2956.6
1503.33,2968.4
1504.77,2985.4
1506.21,2952.6
1507.65,2945.2
1509.09,2901.2
1510.52,2893.6
1511.96,2914.8
1513.4,2912.4
1514.83,2895.0
1516.26,2897.2
1517.7,2860.8
1519.13,2841.8
1520.56,2852.4
1521.99,2835.0
1523.42,2847.0
1524.85,2829.8
1526.27,2854.0
1527.7,2803.2
1529.12,2802.6
1530.55,2829.8
1531.97,2803.0
1533.39,2826.6
1534.81,2785.6
1536.23,2752.2
1537.65,2795.0
1539.07,2775.6
1540.49,2762.0
1541.9,2765.2
1543.32,2826.6
1544.73,2787.4
1546.15,2801.0
1547.56,2785.0
1548.97,2812.6
1550.38,2826.0
1551.79,2813.0
1553.2,2801.6
1554.61,2814.2
1556.01,2756.8
1557.42,2763.0
1558.82,2735.8
1560.22,2736.2
1561.63,2714.8
1563.03,2699.0
1564.43,2687.0
1565.83,2669.6
1567.23,2742.6
1568.63,2649.2
1570.02,2692.0
1571.42,2695.2
1572.81,2668.0
1574.21,2680.0
1575.6,2722.6
1576.99,2717.2
1578.38,2708.2
1579.77,2680.8
1581.16,2724.8
1582.55,2775.8
1583.94,2699.2
1585.32,2736.2
1586.71,2728.6
1588.09,2678.6
1589.47,2745.2
1590.86,2688.6
1592.24,2737.2
1593.62,2727.2
1595.0,2731.8
1596.38,2711.2
1597.75,2846.4
1599.13,2766.6
1600.51,2781.0
1601.88,2832.0
1603.25,2848.8
1604.63,2841.0
1606.0,2818.2
1607.37,2825.2
1608.74,2839.0
1610.11,2822.8
1611.47,2796.2
1612.84,2854.2
1614.21,2866.2
1615.57,2819.8
1616.93,2804.6
1618.3,2861.8
1619.66,2797.6
1621.02,2746.8
1622.38,2756.8
1623.74,2750.6
1625.1,2769.6
1626.45,2697.4
1627.81,2711.4
1629.16,2684.0
1630.52,2706.4
1631.87,2686.2
1633.22,2717.2
1634.57,2742.0
1635.92,2720.0
1637.27,2768.8
1638.62,2807.0
1639.97,2774.2
1641.32,2797.8
1642.66,2822.8
1644.01,2781.2
1645.35,2844.8
1646.69,2817.8
1648.03,2885.2
1649.37,2893.0
1650.71,2923.0
1652.05,2960.2
1653.39,2958.0
1654.73,2984.8
1656.06,2961.8
1657.4,2973.8
1658.73,2959.4
1660.06,3013.4
1661.39,2990.6
1662.72,3038.6
1664.05,2969.4
1665.38,3018.0
1666.71,2983.2
1668.04,2914.2
1669.36,2939.0
1670.69,2965.0
1672.01,2926.6
1673.34,2899.6
1674.66,2880.0
1675.98,2826.6
1677.3,2841.0
1678.62,2753.0
1679.94,2751.4
1681.25,2718.0
1682.57,2712.0
1683.88,2678.0
1685.2,2609.6
1686.51,2608.0
1687.82,2582.2
1689.14,2484.8
1690.45,2530.4
1691.76,2470.2
1693.06,2431.2
1694.37,2413.6
1695.68,2361.0
1696.98,2384.0
1698.29,2373.0
1699.59,2293.8
1700.89,2270.8
1702.2,2237.2
1703.5,2228.2
1704.8,2194.2
1706.1,2186.6
1707.39,2187.4
1708.69,2188.8
1709.99,2110.2
1711.28,2148.4
1712.57,2139.4
1713.87,2139.6
1715.16,2105.4
1716.45,2080.8
1717.74,2071.2
1719.03,2110.0
1720.32,2134.8
1721.6,2073.0
1722.89,2097.8
1724.18,2048.4
1725.46,2047.0
1726.74,2048.4
1728.03,2059.0
1729.31,2024.0
1730.59,2063.6
1731.87,2034.0
1733.15,2015.8
1734.42,1989.8
1735.7,1991.2
1736.97,1992.8
1738.25,2005.6
1739.52,1980.8
1740.79,2005.0
1742.07,1986.0
1743.34,2000.4
1744.61,1970.8
1745.88,1966.8
1747.14,1988.2
1748.41,1970.8
1749.68,1974.6
1750.94,1978.0
1752.2,1963.2
1753.47,1964.0
1754.73,1910.2
1755.99,1924.6
1757.25,1948.2
1758.51,1919.2
1759.77,1959.6
1761.02,1910.4
1762.28,1945.2
1763.54,1924.0
1764.79,1926.2
1766.04,1914.8
1767.29,1879.0
1768.55,1926.6
1769.8,1903.4
1771.05,1936.0
1772.29,1874.6
1773.54,1893.6
1774.79,1887.8
1776.03,1901.6
1777.28,1887.4
1778.52,1897.0
1779.76,1833.4
1781.01,1885.0
1782.25,1841.8
1783.49,1837.8
1784.72,1881.2
1785.96,1864.6
1787.2,1852.2
1788.43,1828.2
1789.67,1883.6
1790.9,1844.6
1792.14,1853.2
1793.37,1867.4
1794.6,1854.2
1795.83,1834.8
1797.06,1817.4
1798.28,1808.4
1799.51,1818.2
1800.74,1826.0
1801.96,1811.4
1803.19,1817.6
1804.41,1796.8
1805.63,1852.6
1806.85,1840.2
1808.07,1803.2
1809.29,1815.0
1810.51,1791.0
1811.73,1781.0
1812.94,1730.2
1814.16,1791.0
1815.37,1753.8
1816.59,1760.4
1817.8,1774.4
1819.01,1786.2
1820.22,1759.6
1821.43,1782.4
1822.64,1781.0
1823.85,1743.6
1825.05,1720.2
1826.26,1761.0
1827.46,1746.8
1828.67,1724.6
1829.87,1739.0
1831.07,1726.2
1832.27,1724.6
1833.47,1733.6
1834.67,1749.8
1835.87,1710.2
1837.07,1718.8
1838.26,1756.0
1839.46,1756.8
1840.65,1736.2
1841.85,1723.2
1843.04,1736.0
1844.23,1766.6
1845.42,1719.6
1846.61,1717.2
1847.8,1727.8
1848.98,1704.4
1850.17,1677.8
1851.35,1726.4
1852.54,1689.8
1853.72,1706.0
1854.9,1690.0
1856.09,1723.4
1857.27,1718.6
1858.45,1667.2
1859.62,1681.4
1860.8,1695.2
1861.98,1731.6
1863.15,1676.2
1864.33,1689.4
1865.5,1691.4
1866.68,1642.8
1867.85,1667.8
1869.02,1646.8
1870.19,1708.8
1871.36,1648.2
1872.52,1633.8
1873.69,1627.8
1874.86,1630.6
1876.02,1648.2
1877.19,1627.6
1878.35,1618.6
1879.51,1628.4
1880.67,1642.8
1881.83,1633.8
1882.99,1648.8
1884.15,1594.4
1885.31,1616.6
1886.46,1618.6
1887.62,1625.4
1888.77,1591.2
1889.92,1570.6
1891.08,1563.2
1892.23,1652.6
1893.38,1592.0
