Wavenumber,Intensities
282.29,5706.0
284.39,5631.8
286.49,5634.8
288.59,5566.2
290.7,5555.2
292.79,5515.0
294.89,5491.2
296.99,5432.4
299.09,5372.4
301.18,5390.0
303.28,5341.2
305.37,5338.6
307.47,5296.6
309.56,5322.2
311.65,5295.2
313.74,5253.8
315.83,5264.6
317.92,5256.8
320.0,5278.4
322.09,5261.2
324.18,5294.2
326.26,5301.0
328.34,5298.8
330.43,5318.0
332.51,5307.8
334.59,5344.8
336.67,5400.4
338.75,5463.0
340.83,5556.4
342.9,5602.2
344.98,5656.6
347.05,5739.4
349.13,5791.8
351.2,5842.8
353.27,5852.0
355.35,5835.0
357.42,5833.6
359.49,5740.2
361.55,5643.8
363.62,5586.0
365.69,5526.6
367.75,5463.4
369.82,5387.8
371.88,5351.2
373.95,5317.6
376.01,5287.6
378.07,5297.4
380.13,5301.2
382.19,5330.2
384.25,5302.8
386.31,5362.8
388.36,5306.0
390.42,5363.4
392.47,5381.0
394.53,5382.8
396.58,5370.8
398.63,5433.4
400.68,5441.6
402.73,5487.2
404.78,5531.4
406.83,5489.4
408.87,5528.4
410.92,5577.6
412.97,5534.4
415.01,5609.2
417.05,5649.2
419.1,5675.6
421.14,5727.0
423.18,5736.0
425.22,5784.2
427.25,5771.8
429.29,5801.6
431.33,5832.2
433.36,5887.4
435.4,5837.8
437.43,5858.2
439.47,5875.0
441.5,5833.6
443.53,5804.8
445.56,5784.6
447.59,5766.6
449.62,5762.4
451.64,5753.2
453.67,5699.0
455.7,5630.2
457.72,5608.6
459.74,5585.0
461.77,5513.8
463.79,5505.2
465.81,5464.2
467.83,5412.2
469.85,5382.6
471.86,5397.0
473.88,5346.8
475.9,5333.0
477.91,5262.4
479.93,5268.8
481.94,5212.0
483.95,5239.6
485.96,5165.6
487.97,5181.4
489.98,5108.4
491.99,5076.6
494.0,4996.0
496.0,4903.8
498.01,4821.0
500.01,4759.8
502.02,4660.0
504.02,4605.6
506.02,4532.4
508.02,4473.4
510.02,4450.0
512.02,4393.4
514.02,4358.6
516.01,4309.4
518.01,4250.2
520.01,4241.4
522.0,4194.4
523.99,4159.6
525.99,4096.0
527.98,4028.0
529.97,4055.6
531.96,4023.8
533.94,4028.8
535.93,3995.0
537.92,3976.4
539.9,3933.4
541.89,3922.8
543.87,3884.2
545.85,3875.2
547.84,3810.6
549.82,3795.6
551.8,3750.8
553.78,3756.2
555.75,3719.2
557.73,3722.4
559.71,3737.4
561.68,3684.6
563.66,3662.6
565.63,3681.4
567.6,3691.6
569.57,3652.0
571.54,3643.6
573.51,3628.4
575.48,3585.2
577.45,3584.6
579.41,3573.8
581.38,3535.2
583.34,3568.6
585.31,3499.2
587.27,3505.2
589.23,3503.6
591.19,3521.2
593.15,3508.2
595.11,3535.8
597.07,3499.8
599.03,3488.4
600.98,3483.8
602.94,3429.2
604.89,3454.4
606.84,3399.2
608.8,3373.2
610.75,3342.6
612.7,3340.0
614.65,3313.4
616.6,3319.0
618.54,3280.6
620.49,3331.2
622.43,3311.6
624.38,3259.8
626.32,3253.2
628.27,3224.4
630.21,3238.2
632.15,3212.2
634.09,3207.8
636.03,3175.6
637.96,3196.2
639.9,3245.4
641.84,3245.6
643.77,3292.0
645.71,3280.6
647.64,3267.4
649.57,3261.6
651.5,3251.0
653.43,3232.6
655.36,3219.8
657.29,3171.0
659.22,3168.0
661.14,3139.6
663.07,3124.8
664.99,3103.4
666.92,3092.0
668.84,3057.6
670.76,3017.6
672.68,3009.0
674.6,3026.4
676.52,3025.6
678.44,3004.0
680.35,3003.2
682.27,2970.2
684.19,2966.2
686.1,2954.2
688.01,2949.4
689.92,2962.2
691.83,2961.0
693.74,2969.0
695.65,2966.8
697.56,2951.0
699.47,2968.6
701.38,3008.6
703.28,2984.8
705.19,2979.0
707.09,3012.4
708.99,3007.0
710.89,2972.8
712.79,2956.4
714.69,2925.8
716.59,2934.8
718.49,2917.0
720.39,2861.4
722.28,2871.8
724.18,2851.4
726.07,2846.8
727.96,2805.8
729.85,2819.0
731.74,2832.6
733.63,2803.6
735.52,2796.0
737.41,2823.6
739.3,2780.6
741.18,2780.6
743.07,2798.8
744.95,2797.6
746.84,2802.2
748.72,2785.2
750.6,2787.4
752.48,2774.6
754.36,2795.4
756.24,2784.0
758.12,2805.8
759.99,2794.2
761.87,2790.0
763.74,2780.8
765.62,2773.8
767.49,2787.2
769.36,2762.8
771.23,2745.6
773.1,2771.6
774.97,2771.6
776.84,2771.0
778.7,2776.0
780.57,2807.6
782.44,2777.8
784.3,2774.0
786.16,2793.4
788.02,2788.4
789.89,2766.8
791.75,2786.0
793.6,2750.2
795.46,2723.8
797.32,2749.8
799.18,2747.4
801.03,2710.6
802.89,2711.6
804.74,2712.4
806.59,2679.8
808.44,2700.4
810.29,2691.6
812.14,2696.6
813.99,2678.8
815.84,2690.4
817.69,2661.8
819.53,2670.8
821.38,2681.4
823.22,2703.6
825.06,2712.6
826.9,2712.6
828.75,2735.4
830.59,2720.6
832.42,2710.4
834.26,2709.4
836.1,2723.6
837.93,2684.4
839.77,2698.8
841.6,2754.0
843.44,2732.2
845.27,2768.8
847.1,2774.2
848.93,2847.2
850.76,2802.8
852.59,2840.8
854.42,2837.0
856.24,2837.2
858.07,2823.6
859.89,2782.0
861.72,2778.6
863.54,2744.4
865.36,2729.0
867.18,2696.4
869.0,2712.4
870.82,2754.6
872.64,2738.0
874.45,2784.6
876.27,2810.2
878.08,2795.2
879.9,2831.8
881.71,2814.8
883.52,2794.0
885.33,2747.4
887.14,2733.0
888.95,2676.6
890.76,2658.4
892.57,2606.8
894.37,2630.0
896.18,2568.6
897.98,2578.8
899.79,2523.6
901.59,2497.2
903.39,2474.0
905.19,2417.8
906.99,2426.0
908.79,2360.6
910.58,2357.8
912.38,2342.6
914.18,2351.0
915.97,2330.0
917.76,2340.6
919.56,2308.2
921.35,2314.4
923.14,2286.2
924.93,2241.8
926.72,2275.8
928.51,2240.2
930.29,2194.8
932.08,2216.6
933.86,2221.0
935.65,2229.4
937.43,2247.4
939.21,2246.8
940.99,2262.2
942.77,2277.2
944.55,2285.4
946.33,2307.8
948.11,2339.8
949.88,2308.6
951.66,2284.4
953.43,2290.4
955.21,2280.2
956.98,2247.8
958.75,2221.6
960.52,2191.8
962.29,2150.6
964.06,2137.6
965.82,2111.0
967.59,2082.0
969.36,2087.8
971.12,2078.4
972.88,2087.2
974.65,2075.2
976.41,2070.0
978.17,2106.4
979.93,2119.0
981.69,2149.0
983.45,2125.8
985.2,2131.8
986.96,2150.6
988.71,2165.6
990.47,2144.0
992.22,2149.4
993.97,2160.8
995.72,2163.2
997.47,2211.2
999.22,2249.8
1000.97,2328.8
1002.72,2430.4
1004.46,2380.0
1006.21,2277.4
1007.95,2224.2
1009.7,2155.2
1011.44,2179.8
1013.18,2170.6
1014.92,2182.4
1016.66,2203.4
1018.4,2196.2
1020.13,2229.0
1021.87,2242.4
1023.61,2237.4
1025.34,2243.0
1027.07,2215.6
1028.81,2242.6
1030.54,2264.6
1032.27,2252.8
1034.0,2246.6
1035.73,2237.0
1037.46,2233.2
1039.18,2274.4
1040.91,2287.2
1042.63,2304.0
1044.36,2321.4
1046.08,2339.0
1047.8,2301.0
1049.52,2315.8
1051.24,2346.2
1052.96,2343.4
1054.68,2349.6
1056.4,2354.0
1058.11,2363.2
1059.83,2378.4
1061.54,2394.0
1063.26,2392.4
1064.97,2367.0
1066.68,2351.2
1068.39,2441.2
1070.1,2433.8
1071.81,2462.2
1073.51,2501.4
1075.22,2563.0
1076.93,2572.8
1078.63,2628.0
1080.33,2648.8
1082.04,2612.2
1083.74,2624.4
1085.44,2621.4
1087.14,2562.2
1088.84,2550.8
1090.53,2478.0
1092.23,2433.8
1093.93,2416.8
1095.62,2388.4
1097.32,2335.2
1099.01,2317.6
1100.7,2313.2
1102.39,2307.2
1104.08,2283.6
1105.77,2302.4
1107.46,2341.0
1109.15,2326.4
1110.83,2337.4
1112.52,2363.2
1114.2,2404.2
1115.88,2441.6
1117.57,2435.6
1119.25,2476.2
1120.93,2473.2
1122.61,2470.2
1124.28,2441.2
1125.96,2389.6
1127.64,2350.0
1129.31,2292.6
1130.99,2241.0
1132.66,2141.4
1134.33,2134.0
1136.01,2053.4
1137.68,2031.8
1139.35,2027.6
1141.01,1993.0
1142.68,2003.8
1144.35,2000.4
1146.01,1982.0
1147.68,2027.4
1149.34,2021.4
1151.01,2015.2
1152.67,1996.2
1154.33,1990.6
1155.99,1959.4
1157.65,1944.2
1159.3,1946.6
1160.96,1914.6
1162.62,1866.2
1164.27,1820.8
1165.93,1788.4
1167.58,1787.8
1169.23,1748.2
1170.88,1717.4
1172.53,1704.4
1174.18,1717.0
1175.83,1662.0
1177.48,1661.8
1179.12,1658.4
1180.77,1616.2
1182.41,1594.2
1184.06,1559.8
1185.7,1570.6
1187.34,1556.2
1188.98,1587.4
1190.62,1589.6
1192.26,1579.8
1193.9,1600.0
1195.53,1564.8
1197.17,1598.6
1198.8,1643.8
1200.44,1616.6
1202.07,1632.2
1203.7,1669.4
1205.33,1671.2
1206.96,1684.2
1208.59,1664.4
1210.22,1662.8
1211.85,1667.4
1213.47,1640.2
1215.1,1646.0
1216.72,1631.0
1218.34,1610.8
1219.96,1633.2
1221.59,1663.8
1223.21,1643.4
1224.83,1673.4
1226.44,1678.4
1228.06,1683.0
1229.68,1728.4
1231.29,1734.2
1232.91,1752.6
1234.52,1778.4
1236.13,1798.0
1237.74,1787.4
1239.35,1820.6
1240.96,1821.6
1242.57,1845.8
1244.18,1871.8
1245.78,1841.6
1247.39,1875.8
1248.99,1874.8
1250.6,1918.8
1252.2,1904.0
1253.8,1949.8
1255.4,1950.2
1257.0,1962.0
1258.6,1980.6
1260.2,1963.0
1261.8,1981.2
1263.39,1964.8
1264.99,1959.6
1266.58,1956.4
1268.17,1926.4
1269.77,1903.6
1271.36,1871.8
1272.95,1843.4
1274.54,1809.4
1276.12,1783.8
1277.71,1737.4
1279.3,1732.8
1280.88,1726.2
1282.47,1712.2
1284.05,1682.6
1285.63,1639.4
1287.21,1664.0
1288.79,1660.0
1290.37,1646.2
1291.95,1632.2
1293.53,1618.4
1295.1,1638.8
1296.68,1635.6
1298.25,1625.0
1299.83,1620.6
1301.4,1684.8
1302.97,1689.8
1304.54,1683.0
1306.11,1679.8
1307.68,1691.6
1309.25,1726.6
1310.81,1746.0
1312.38,1734.6
1313.94,1707.8
1315.51,1739.0
1317.07,1733.6
1318.63,1743.8
1320.19,1761.2
1321.75,1751.2
1323.31,1746.0
1324.87,1723.4
1326.43,1733.6
1327.98,1743.2
1329.54,1725.2
1331.09,1696.6
1332.64,1701.2
1334.2,1722.8
1335.75,1729.8
1337.3,1697.0
1338.85,1717.4
1340.4,1726.0
1341.94,1692.6
1343.49,1692.2
1345.03,1698.0
1346.58,1686.8
1348.12,1627.0
1349.66,1631.0
1351.21,1616.8
1352.75,1586.4
1354.29,1569.0
1355.82,1554.2
1357.36,1561.8
1358.9,1613.8
1360.43,1543.2
1361.97,1546.2
1363.5,1541.0
1365.03,1558.2
1366.57,1549.6
1368.1,1545.4
1369.63,1545.2
1371.16,1502.8
1372.68,1510.4
1374.21,1511.0
1375.74,1502.2
1377.26,1470.0
1378.78,1426.6
1380.31,1483.2
1381.83,1446.4
1383.35,1465.6
1384.87,1446.6
1386.39,1429.6
1387.91,1434.4
1389.42,1394.4
1390.94,1378.4
1392.46,1402.8
1393.97,1393.2
1395.48,1385.4
1397.0,1387.2
1398.51,1394.4
1400.02,1395.8
1401.53,1378.2
1403.04,1361.8
1404.54,1397.4
1406.05,1331.2
1407.55,1366.0
1409.06,1350.2
1410.56,1354.4
1412.06,1326.6
1413.57,1330.4
1415.07,1356.8
1416.57,1331.2
1418.07,1331.2
1419.56,1332.4
1421.06,1367.8
1422.56,1311.2
1424.05,1321.4
1425.54,1292.6
1427.04,1302.6
1428.53,1306.8
1430.02,1266.6
1431.51,1288.0
1433.0,1282.0
1434.49,1293.2
1435.97,1322.0
1437.46,1309.6
1438.94,1327.2
1440.43,1363.6
1441.91,1364.4
1443.39,1384.6
1444.88,1425.4
1446.36,1414.6
1447.83,1470.0
1449.31,1454.2
1450.79,1467.0
1452.27,1470.4
1453.74,1449.4
1455.22,1465.6
1456.69,1443.4
1458.16,1449.8
1459.63,1478.6
1461.1,1448.0
1462.57,1428.4
1464.04,1468.4
1465.51,1384.2
1466.98,1378.2
1468.44,1357.2
1469.91,1301.6
1471.37,1282.6
1472.83,1244.6
1474.3,1194.4
1475.76,1141.4
1477.22,1114.0
1478.67,1054.2
1480.13,1028.2
1481.59,992.0
1483.05,963.4
1484.5,965.8
1485.95,960.2
1487.41,952.2
1488.86,922.4
1490.31,915.0
1491.76,894.6
1493.21,927.0
1494.66,900.0
1496.11,889.6
1497.55,879.6
1499.0,876.8
1500.44,865.4
1501.88,874.4
1503.33,873.6
1504.77,866.6
1506.21,840.2
1507.65,856.6
1509.09,850.0
1510.52,847.0
1511.96,845.6
1513.4,843.2
1514.83,846.2
1516.26,834.6
1517.7,845.0
1519.13,848.4
1520.56,839.4
1521.99,827.0
1523.42,824.8
1524.85,823.2
1526.27,830.8
1527.7,827.2
1529.12,832.4
1530.55,832.2
1531.97,851.6
1533.39,820.2
1534.81,859.0
1536.23,825.4
1537.65,838.6
1539.07,825.4
1540.49,860.2
1541.9,831.8
1543.32,849.0
1544.73,885.2
1546.15,897.4
1547.56,873.6
1548.97,897.0
1550.38,900.4
1551.79,943.8
1553.2,939.4
1554.61,983.4
1556.01,975.8
1557.42,960.6
1558.82,916.4
1560.22,927.4
1561.63,878.6
1563.03,866.2
1564.43,876.8
1565.83,897.6
1567.23,884.6
1568.63,890.8
1570.02,884.4
1571.42,884.8
1572.81,897.6
1574.21,911.4
1575.6,939.2
1576.99,893.8
1578.38,909.8
1579.77,918.8
1581.16,940.2
1582.55,935.4
1583.94,966.2
1585.32,949.2
1586.71,985.0
1588.09,954.6
1589.47,976.4
1590.86,989.4
1592.24,983.4
1593.62,985.2
1595.0,1011.4
1596.38,1002.6
1597.75,1037.8
1599.13,1040.4
1600.51,1082.6
1601.88,1079.6
1603.25,1084.4
1604.63,1099.0
1606.0,1122.8
1607.37,1121.8
1608.74,1125.0
1610.11,1126.4
1611.47,1132.6
1612.84,1151.2
1614.21,1170.0
1615.57,1150.2
1616.93,1179.8
1618.3,1189.0
1619.66,1176.0
1621.02,1185.4
1622.38,1191.4
1623.74,1194.0
1625.1,1210.4
1626.45,1208.0
1627.81,1203.0
1629.16,1192.2
1630.52,1211.0
1631.87,1214.8
1633.22,1207.4
1634.57,1207.4
1635.92,1234.6
1637.27,1233.0
1638.62,1209.8
1639.97,1226.4
1641.32,1198.4
1642.66,1240.2
1644.01,1207.4
1645.35,1224.0
1646.69,1253.8
1648.03,1245.2
1649.37,1249.8
1650.71,1219.4
1652.05,1209.0
1653.39,1204.2
1654.73,1202.8
1656.06,1210.2
1657.4,1193.8
1658.73,1205.4
1660.06,1229.8
1661.39,1197.0
1662.72,1207.6
1664.05,1165.6
1665.38,1171.0
1666.71,1146.8
1668.04,1142.0
1669.36,1131.0
1670.69,1124.6
1672.01,1088.2
1673.34,1057.2
1674.66,1073.8
1675.98,1061.0
1677.3,1040.4
1678.62,1001.8
1679.94,988.6
1681.25,957.0
1682.57,927.6
1683.88,948.4
1685.2,884.8
1686.51,903.2
1687.82,872.8
1689.14,838.2
1690.45,827.6
1691.76,783.8
1693.06,779.0
1694.37,783.6
1695.68,741.2
1696.98,722.0
1698.29,707.8
1699.59,692.6
1700.89,667.4
1702.2,646.0
1703.5,651.6
1704.8,641.0
1706.1,616.0
1707.39,593.2
1708.69,599.0
1709.99,601.4
1711.28,574.2
1712.57,571.8
1713.87,559.4
1715.16,553.4
1716.45,537.4
1717.74,546.2
1719.03,534.6
1720.32,506.4
1721.6,504.2
1722.89,503.4
1724.18,500.2
1725.46,477.4
1726.74,471.4
1728.03,501.4
1729.31,467.8
1730.59,468.2
1731.87,474.4
1733.15,442.8
1734.42,443.0
1735.7,428.2
1736.97,451.8
1738.25,450.8
1739.52,418.2
1740.79,414.6
1742.07,398.0
1743.34,428.2
1744.61,411.6
1745.88,415.2
1747.14,402.0
1748.41,428.2
1749.68,402.4
1750.94,404.6
1752.2,383.4
1753.47,363.8
1754.73,381.4
1755.99,375.2
1757.25,377.2
1758.51,372.2
1759.77,371.2
1761.02,370.6
1762.28,360.0
1763.54,342.4
1764.79,379.0
1766.04,366.6
1767.29,357.0
1768.55,340.2
1769.8,356.0
1771.05,358.0
1772.29,338.2
1773.54,342.0
1774.79,330.2
1776.03,334.8
1777.28,317.6
1778.52,352.4
1779.76,325.6
1781.01,339.2
1782.25,343.6
1783.49,323.4
1784.72,328.0
1785.96,320.8
1787.2,332.6
1788.43,309.2
1789.67,301.6
1790.9,325.0
1792.14,315.8
1793.37,303.6
1794.6,295.8
1795.83,322.8
1797.06,313.4
1798.28,310.8
1799.51,295.2
1800.74,323.6
1801.96,282.6
1803.19,272.6
1804.41,300.8
1805.63,289.4
1806.85,290.8
1808.07,295.4
1809.29,289.4
1810.51,257.0
1811.73,278.8
1812.94,278.6
1814.16,277.2
1815.37,294.2
1816.59,299.0
1817.8,278.8
1819.01,268.6
1820.22,270.0
1821.43,277.0
1822.64,245.2
1823.85,270.4
1825.05,271.8
1826.26,268.2
1827.46,249.8
1828.67,250.6
1829.87,262.2
1831.07,258.0
1832.27,281.8
1833.47,255.8
1834.67,271.8
1835.87,267.2
1837.07,268.8
1838.26,276.2
1839.46,225.6
1840.65,256.0
1841.85,250.6
1843.04,273.4
1844.23,275.0
1845.42,246.0
1846.61,237.6
1847.8,259.6
1848.98,245.4
1850.17,248.2
1851.35,238.0
1852.54,253.0
1853.72,277.8
1854.9,245.2
1856.09,223.4
1857.27,246.2
1858.45,239.0
1859.62,243.4
1860.8,248.2
1861.98,241.6
1863.15,231.4
1864.33,230.8
1865.5,240.8
1866.68,226.0
1867.85,239.4
1869.02,229.4
1870.19,223.2
1871.36,230.2
1872.52,221.4
1873.69,239.2
1874.86,236.8
1876.02,245.4
1877.19,231.6
1878.35,220.2
1879.51,244.4
1880.67,225.8
1881.83,227.0
1882.99,213.6
1884.15,218.8
1885.31,230.8
1886.46,217.0
1887.62,219.6
1888.77,237.0
1889.92,224.8
1891.08,213.2
1892.23,218.4
1893.38,231.4
