Wavenumber,Intensities
282.29,2980.8
284.39,2951.8
286.49,2918.4
288.59,2876.4
290.7,2872.8
292.79,2850.6
294.89,2845.6
296.99,2824.0
299.09,2819.2
301.18,2816.4
303.28,2784.4
305.37,2774.0
307.47,2785.2
309.56,2759.8
311.65,2760.2
313.74,2755.8
315.83,2759.2
317.92,2729.0
320.0,2742.8
322.09,2727.4
324.18,2741.4
326.26,2740.8
328.34,2755.0
330.43,2765.2
332.51,2786.0
334.59,2829.2
336.67,2835.4
338.75,2866.0
340.83,2912.4
342.9,2953.2
344.98,2983.6
347.05,3042.4
349.13,3092.0
351.2,3093.2
353.27,3113.8
355.35,3119.2
357.42,3050.2
359.49,3043.2
361.55,2984.2
363.62,2939.6
365.69,2888.0
367.75,2851.2
369.82,2815.2
371.88,2811.4
373.95,2763.4
376.01,2759.6
378.07,2794.0
380.13,2762.6
382.19,2799.8
384.25,2795.2
386.31,2811.4
388.36,2781.8
390.42,2805.6
392.47,2822.8
394.53,2815.6
396.58,2822.0
398.63,2842.4
400.68,2859.2
402.73,2881.2
404.78,2885.2
406.83,2898.4
408.87,2878.0
410.92,2926.2
412.97,2900.6
415.01,2941.2
417.05,2978.8
419.1,2971.0
421.14,3006.6
423.18,2995.0
425.22,3023.6
427.25,3041.4
429.29,3017.6
431.33,3037.4
433.36,3061.4
435.4,3085.2
437.43,3093.8
439.47,3051.2
441.5,3057.2
443.53,3057.6
445.56,3032.4
447.59,3004.4
449.62,3010.2
451.64,2990.0
453.67,3002.4
455.7,2969.2
457.72,2945.0
459.74,2934.4
461.77,2908.0
463.79,2863.6
465.81,2862.2
467.83,2839.6
469.85,2839.4
471.86,2822.6
473.88,2820.8
475.9,2767.6
477.91,2753.0
479.93,2738.0
481.94,2710.0
483.95,2703.2
485.96,2665.4
487.97,2695.0
489.98,2649.4
491.99,2622.2
494.0,2577.2
496.0,2530.6
498.01,2499.2
500.01,2482.4
502.02,2417.6
504.02,2389.6
506.02,2353.0
508.02,2326.0
510.02,2314.4
512.02,2284.6
514.02,2276.4
516.01,2244.6
518.01,2252.4
520.01,2223.2
522.0,2192.2
523.99,2146.0
525.99,2120.8
527.98,2127.0
529.97,2096.6
531.96,2114.4
533.94,2098.8
535.93,2070.0
537.92,2067.4
539.9,2041.2
541.89,2026.0
543.87,2007.2
545.85,2001.4
547.84,1977.0
549.82,1966.6
551.8,1965.8
553.78,1948.4
555.75,1925.0
557.73,1930.2
559.71,1934.2
561.68,1914.4
563.66,1929.4
565.63,1906.6
567.6,1898.2
569.57,1914.4
571.54,1875.4
573.51,1892.4
575.48,1869.6
577.45,1879.4
579.41,1844.8
581.38,1850.6
583.34,1818.0
585.31,1817.6
587.27,1814.2
589.23,1818.8
591.19,1820.0
593.15,1808.0
595.11,1808.8
597.07,1827.0
599.03,1827.6
600.98,1811.2
602.94,1769.6
604.89,1777.8
606.84,1780.2
608.8,1755.6
610.75,1741.2
612.7,1724.6
614.65,1711.8
616.6,1711.2
618.54,1712.6
620.49,1684.4
622.43,1718.2
624.38,1691.4
626.32,1684.8
628.27,1668.2
630.21,1673.6
632.15,1670.8
634.09,1668.4
636.03,1662.2
637.96,1670.6
639.9,1671.6
641.84,1689.0
643.77,1698.2
645.71,1709.4
647.64,1716.0
649.57,1706.2
651.5,1696.4
653.43,1686.0
655.36,1660.2
657.29,1631.8
659.22,1636.4
661.14,1620.8
663.07,1618.4
664.99,1602.4
666.92,1579.4
668.84,1591.0
670.76,1571.8
672.68,1597.0
674.6,1567.4
676.52,1561.4
678.44,1536.8
680.35,1532.0
682.27,1543.0
684.19,1556.6
686.1,1527.2
688.01,1538.2
689.92,1536.2
691.83,1534.6
693.74,1529.2
695.65,1538.4
697.56,1555.2
699.47,1542.8
701.38,1549.2
703.28,1547.0
705.19,1563.6
707.09,1539.4
708.99,1511.0
710.89,1534.8
712.79,1544.4
714.69,1531.0
716.59,1518.0
718.49,1523.4
720.39,1503.6
722.28,1497.4
724.18,1470.6
726.07,1462.6
727.96,1463.0
729.85,1456.4
731.74,1441.2
733.63,1451.2
735.52,1443.6
737.41,1452.6
739.3,1452.8
741.18,1442.0
743.07,1434.4
744.95,1433.2
746.84,1447.0
748.72,1446.2
750.6,1461.4
752.48,1444.2
754.36,1441.8
756.24,1442.0
758.12,1456.4
759.99,1428.0
761.87,1421.8
763.74,1444.4
765.62,1443.6
767.49,1442.0
769.36,1427.6
771.23,1419.2
773.1,1450.6
774.97,1426.2
776.84,1437.4
778.7,1447.6
780.57,1431.2
782.44,1438.0
784.3,1439.6
786.16,1428.4
788.02,1463.6
789.89,1427.6
791.75,1429.0
793.6,1430.0
795.46,1421.6
797.32,1399.8
799.18,1401.4
801.03,1415.4
802.89,1405.8
804.74,1403.6
806.59,1366.8
808.44,1413.6
810.29,1405.8
812.14,1380.6
813.99,1390.8
815.84,1384.8
817.69,1391.8
819.53,1401.2
821.38,1404.8
823.22,1415.4
825.06,1404.2
826.9,1424.4
828.75,1413.8
830.59,1416.6
832.42,1398.2
834.26,1413.8
836.1,1424.0
837.93,1419.2
839.77,1423.2
841.6,1440.4
843.44,1461.4
845.27,1473.4
847.1,1473.2
848.93,1490.4
850.76,1506.8
852.59,1515.6
854.42,1469.4
856.24,1509.8
858.07,1507.2
859.89,1488.8
861.72,1490.0
863.54,1471.2
865.36,1452.6
867.18,1463.4
869.0,1464.8
870.82,1455.2
872.64,1472.6
874.45,1472.6
876.27,1511.8
878.08,1512.6
879.9,1525.0
881.71,1502.0
883.52,1513.6
885.33,1493.0
887.14,1457.2
888.95,1440.0
890.76,1417.0
892.57,1389.0
894.37,1373.8
896.18,1373.8
897.98,1360.0
899.79,1382.0
901.59,1328.6
903.39,1297.2
905.19,1302.0
906.99,1279.6
908.79,1275.6
910.58,1284.2
912.38,1253.2
914.18,1238.0
915.97,1247.8
917.76,1251.8
919.56,1237.8
921.35,1246.8
923.14,1227.8
924.93,1211.4
926.72,1210.4
928.51,1206.4
930.29,1187.6
932.08,1193.0
933.86,1194.6
935.65,1194.8
937.43,1202.2
939.21,1229.0
940.99,1229.4
942.77,1240.8
944.55,1234.0
946.33,1243.2
948.11,1252.4
949.88,1245.8
951.66,1245.2
953.43,1238.6
955.21,1219.4
956.98,1207.6
958.75,1204.8
960.52,1188.8
962.29,1157.0
964.06,1147.4
965.82,1109.2
967.59,1123.4
969.36,1097.8
971.12,1120.2
972.88,1089.6
974.65,1108.6
976.41,1120.0
978.17,1132.0
979.93,1131.4
981.69,1133.8
983.45,1135.8
985.2,1140.8
986.96,1147.0
988.71,1150.0
990.47,1163.2
992.22,1150.2
993.97,1175.0
995.72,1170.8
997.47,1193.6
999.22,1230.2
1000.97,1298.8
1002.72,1324.0
1004.46,1310.4
1006.21,1258.4
1007.95,1218.2
1009.7,1186.8
1011.44,1179.6
1013.18,1177.8
1014.92,1201.4
1016.66,1176.0
1018.4,1199.8
1020.13,1202.2
1021.87,1212.2
1023.61,1188.8
1025.34,1212.0
1027.07,1215.0
1028.81,1208.2
1030.54,1235.2
1032.27,1225.0
1034.0,1215.6
1035.73,1230.6
1037.46,1243.8
1039.18,1223.4
1040.91,1231.0
1042.63,1261.6
1044.36,1262.0
1046.08,1267.2
1047.8,1271.6
1049.52,1262.0
1051.24,1238.6
1052.96,1272.6
1054.68,1289.2
1056.4,1273.2
1058.11,1294.2
1059.83,1307.0
1061.54,1318.0
1063.26,1290.8
1064.97,1315.2
1066.68,1320.6
1068.39,1319.8
1070.1,1341.0
1071.81,1381.8
1073.51,1382.0
1075.22,1430.0
1076.93,1428.8
1078.63,1429.2
1080.33,1467.4
1082.04,1466.4
1083.74,1467.6
1085.44,1439.2
1087.14,1437.6
1088.84,1406.8
1090.53,1383.2
1092.23,1365.2
1093.93,1332.2
1095.62,1312.4
1097.32,1303.8
1099.01,1287.0
1100.7,1263.8
1102.39,1253.4
1104.08,1269.6
1105.77,1272.0
1107.46,1260.4
1109.15,1275.0
1110.83,1278.8
1112.52,1309.0
1114.2,1333.4
1115.88,1329.8
1117.57,1376.0
1119.25,1400.0
1120.93,1364.2
1122.61,1354.0
1124.28,1347.2
1125.96,1344.6
1127.64,1281.8
1129.31,1271.2
1130.99,1222.2
1132.66,1200.0
1134.33,1160.8
1136.01,1139.8
1137.68,1102.2
1139.35,1102.6
1141.01,1085.0
1142.68,1095.0
1144.35,1087.2
1146.01,1084.2
1147.68,1099.8
1149.34,1093.2
1151.01,1091.8
1152.67,1104.0
1154.33,1091.2
1155.99,1083.8
1157.65,1045.8
1159.3,1060.2
1160.96,1011.4
1162.62,1015.4
1164.27,986.2
1165.93,981.0
1167.58,941.6
1169.23,937.0
1170.88,935.8
1172.53,913.8
1174.18,900.4
1175.83,898.2
1177.48,908.2
1179.12,876.6
1180.77,860.8
1182.41,855.2
1184.06,858.2
1185.7,835.8
1187.34,844.8
1188.98,849.0
1190.62,855.2
1192.26,831.4
1193.9,848.0
1195.53,861.6
1197.17,869.4
1198.8,864.4
1200.44,857.6
1202.07,872.4
1203.7,891.4
1205.33,881.4
1206.96,912.0
1208.59,907.4
1210.22,894.6
1211.85,905.8
1213.47,870.4
1215.1,871.0
1216.72,874.6
1218.34,877.6
1219.96,858.0
1221.59,898.4
1223.21,878.8
1224.83,891.4
1226.44,906.0
1228.06,900.6
1229.68,921.2
1231.29,912.2
1232.91,945.2
1234.52,957.6
1236.13,952.2
1237.74,989.4
1239.35,976.4
1240.96,978.8
1242.57,1003.8
1244.18,1008.4
1245.78,1004.8
1247.39,1014.0
1248.99,1019.2
1250.6,1049.8
1252.2,1035.8
1253.8,1051.4
1255.4,1063.4
1257.0,1070.0
1258.6,1080.0
1260.2,1083.4
1261.8,1089.8
1263.39,1078.2
1264.99,1070.8
1266.58,1071.6
1268.17,1042.4
1269.77,1042.0
1271.36,1030.4
1272.95,1004.6
1274.54,996.2
1276.12,956.8
1277.71,943.2
1279.3,946.2
1280.88,939.4
1282.47,911.8
1284.05,930.8
1285.63,912.2
1287.21,909.6
1288.79,898.4
1290.37,892.8
1291.95,890.6
1293.53,874.2
1295.1,876.8
1296.68,874.0
1298.25,883.4
1299.83,885.0
1301.4,903.8
1302.97,898.2
1304.54,895.8
1306.11,893.2
1307.68,913.2
1309.25,941.0
1310.81,930.2
1312.38,953.6
1313.94,948.4
1315.51,951.6
1317.07,935.4
1318.63,969.6
1320.19,953.8
1321.75,947.6
1323.31,966.2
1324.87,931.8
1326.43,947.6
1327.98,951.4
1329.54,952.4
1331.09,944.8
1332.64,946.8
1334.2,939.4
1335.75,958.2
1337.3,934.0
1338.85,959.8
1340.4,966.6
1341.94,956.0
1343.49,934.6
1345.03,940.8
1346.58,922.4
1348.12,897.8
1349.66,890.2
1351.21,863.2
1352.75,869.4
1354.29,858.2
1355.82,857.0
1357.36,858.6
1358.9,861.0
1360.43,882.6
1361.97,853.6
1363.5,845.2
1365.03,837.6
1366.57,838.0
1368.1,834.0
1369.63,835.0
1371.16,832.0
1372.68,828.4
1374.21,819.8
1375.74,822.4
1377.26,830.8
1378.78,790.6
1380.31,783.2
1381.83,786.6
1383.35,808.0
1384.87,761.8
1386.39,771.0
1387.91,765.6
1389.42,787.2
1390.94,773.6
1392.46,759.4
1393.97,744.2
1395.48,767.0
1397.0,740.6
1398.51,754.8
1400.02,746.6
1401.53,751.0
1403.04,750.2
1404.54,741.2
1406.05,729.6
1407.55,726.6
1409.06,726.2
1410.56,726.6
1412.06,715.0
1413.57,720.0
1415.07,722.8
1416.57,729.2
1418.07,720.8
1419.56,721.6
1421.06,710.2
1422.56,706.0
1424.05,724.6
1425.54,725.2
1427.04,709.0
1428.53,693.4
1430.02,704.0
1431.51,710.8
1433.0,697.0
1434.49,704.2
1435.97,710.2
1437.46,717.6
1438.94,740.2
1440.43,745.6
1441.91,749.0
1443.39,756.4
1444.88,772.4
1446.36,776.2
1447.83,786.4
1449.31,804.0
1450.79,786.4
1452.27,792.8
1453.74,805.2
1455.22,777.0
1456.69,805.0
1458.16,816.0
1459.63,805.4
1461.1,798.2
1462.57,795.6
1464.04,794.4
1465.51,787.6
1466.98,755.6
1468.44,745.6
1469.91,711.0
1471.37,685.4
1472.83,682.0
1474.3,619.6
1475.76,603.2
1477.22,583.4
1478.67,565.2
1480.13,540.2
1481.59,539.2
1483.05,522.6
1484.5,506.0
1485.95,489.0
1487.41,492.0
1488.86,486.0
1490.31,455.8
1491.76,479.8
1493.21,473.4
1494.66,462.4
1496.11,457.4
1497.55,456.4
1499.0,435.2
1500.44,456.6
1501.88,453.8
1503.33,432.0
1504.77,444.2
1506.21,435.8
1507.65,438.6
1509.09,440.2
1510.52,427.0
1511.96,426.0
1513.4,423.4
1514.83,450.2
1516.26,415.8
1517.7,419.4
1519.13,435.8
1520.56,422.2
1521.99,429.0
1523.42,415.4
1524.85,421.2
1526.27,425.0
1527.7,423.4
1529.12,441.6
1530.55,426.4
1531.97,438.2
1533.39,422.6
1534.81,440.4
1536.23,418.4
1537.65,430.4
1539.07,433.0
1540.49,438.2
1541.9,421.0
1543.32,437.4
1544.73,429.8
1546.15,474.6
1547.56,459.8
1548.97,460.8
1550.38,459.6
1551.79,477.4
1553.2,489.8
1554.61,500.6
1556.01,495.4
1557.42,489.0
1558.82,481.4
1560.22,448.2
1561.63,454.0
1563.03,450.0
1564.43,429.6
1565.83,423.6
1567.23,466.4
1568.63,467.0
1570.02,460.2
1571.42,446.8
1572.81,447.4
1574.21,467.4
1575.6,461.6
1576.99,477.4
1578.38,478.2
1579.77,479.0
1581.16,482.4
1582.55,485.8
1583.94,492.6
1585.32,482.2
1586.71,469.8
1588.09,485.8
1589.47,488.2
1590.86,512.4
1592.24,493.0
1593.62,505.8
1595.0,497.6
1596.38,520.4
1597.75,546.2
1599.13,534.6
1600.51,539.4
1601.88,542.4
1603.25,575.0
1604.63,582.4
1606.0,573.4
1607.37,564.4
1608.74,579.0
1610.11,572.6
1611.47,570.0
1612.84,608.4
1614.21,594.6
1615.57,603.6
1616.93,605.2
1618.3,587.6
1619.66,602.8
1621.02,609.2
1622.38,600.2
1623.74,608.4
1625.1,614.0
1626.45,611.2
1627.81,611.2
1629.16,624.2
1630.52,593.8
1631.87,611.6
1633.22,609.6
1634.57,614.0
1635.92,636.8
1637.27,626.4
1638.62,636.8
1639.97,618.0
1641.32,625.8
1642.66,621.8
1644.01,630.4
1645.35,624.8
1646.69,610.4
1648.03,641.6
1649.37,620.4
1650.71,623.0
1652.05,636.4
1653.39,626.8
1654.73,619.0
1656.06,626.4
1657.4,637.8
1658.73,640.0
1660.06,640.8
1661.39,681.2
1662.72,835.2
1664.05,777.2
1665.38,677.6
1666.71,625.0
1668.04,590.2
1669.36,575.4
1670.69,581.8
1672.01,577.0
1673.34,545.2
1674.66,553.2
1675.98,533.4
1677.3,527.6
1678.62,523.0
1679.94,514.8
1681.25,500.6
1682.57,504.8
1683.88,466.4
1685.2,472.4
1686.51,443.2
1687.82,448.8
1689.14,432.4
1690.45,428.2
1691.76,410.6
1693.06,397.2
1694.37,390.2
1695.68,369.8
1696.98,367.6
1698.29,371.2
1699.59,359.8
1700.89,335.8
1702.2,335.8
1703.5,329.8
1704.8,310.0
1706.1,318.2
1707.39,306.4
1708.69,299.8
1709.99,305.4
1711.28,306.0
1712.57,288.6
1713.87,281.6
1715.16,284.2
1716.45,286.6
1717.74,271.2
1719.03,255.2
1720.32,258.6
1721.6,259.8
1722.89,251.2
1724.18,257.4
1725.46,249.8
1726.74,249.0
1728.03,237.4
1729.31,249.2
1730.59,242.0
1731.87,238.8
1733.15,248.4
1734.42,233.8
1735.7,218.8
1736.97,230.8
1738.25,224.8
1739.52,222.0
1740.79,211.6
1742.07,203.6
1743.34,212.8
1744.61,220.4
1745.88,210.6
1747.14,210.6
1748.41,201.2
1749.68,199.8
1750.94,205.6
1752.2,199.8
1753.47,178.4
1754.73,198.0
1755.99,189.6
1757.25,200.4
1758.51,193.0
1759.77,179.2
1761.02,196.6
1762.28,191.4
1763.54,189.8
1764.79,183.0
1766.04,185.2
1767.29,178.4
1768.55,185.4
1769.8,179.0
1771.05,174.4
1772.29,178.4
1773.54,176.8
1774.79,174.2
1776.03,194.4
1777.28,168.6
1778.52,170.8
1779.76,159.6
1781.01,163.8
1782.25,164.0
1783.49,158.8
1784.72,174.8
1785.96,167.8
1787.2,162.6
1788.43,166.2
1789.67,168.6
1790.9,173.8
1792.14,170.2
1793.37,139.6
1794.6,166.6
1795.83,168.0
1797.06,145.0
1798.28,148.8
1799.51,167.2
1800.74,159.2
1801.96,150.4
1803.19,155.8
1804.41,149.6
1805.63,161.6
1806.85,151.0
1808.07,141.4
1809.29,130.2
1810.51,154.2
1811.73,140.2
1812.94,156.4
1814.16,143.6
1815.37,141.4
1816.59,152.0
1817.8,126.8
1819.01,132.2
1820.22,151.6
1821.43,136.4
1822.64,150.6
1823.85,130.0
1825.05,141.0
1826.26,124.8
1827.46,140.4
1828.67,129.8
1829.87,143.0
1831.07,125.4
1832.27,120.4
1833.47,135.4
1834.67,133.8
1835.87,135.2
1837.07,125.8
1838.26,135.4
1839.46,108.4
1840.65,135.6
1841.85,133.2
1843.04,129.0
1844.23,122.8
1845.42,126.6
1846.61,128.2
1847.8,131.6
1848.98,143.6
1850.17,132.8
1851.35,131.2
1852.54,127.4
1853.72,127.0
1854.9,123.0
1856.09,117.2
1857.27,131.6
1858.45,121.0
1859.62,109.4
1860.8,131.6
1861.98,125.2
1863.15,116.2
1864.33,119.4
1865.5,136.4
1866.68,107.8
1867.85,125.2
1869.02,127.0
1870.19,125.8
1871.36,104.6
1872.52,111.4
1873.69,120.4
1874.86,124.6
1876.02,108.2
1877.19,115.6
1878.35,124.6
1879.51,113.8
1880.67,127.8
1881.83,102.4
1882.99,124.8
1884.15,123.4
1885.31,126.2
1886.46,121.6
1887.62,106.0
1888.77,120.6
1889.92,113.4
1891.08,109.4
1892.23,108.0
1893.38,124.8
