Wavenumber,Intensities
282.29,3102.0
284.39,3071.8
286.49,3062.8
288.59,3025.2
290.7,3015.4
292.79,2973.6
294.89,2995.6
296.99,2977.8
299.09,2963.6
301.18,2940.2
303.28,2922.8
305.37,2904.0
307.47,2875.8
309.56,2909.8
311.65,2882.6
313.74,2885.0
315.83,2890.4
317.92,2889.6
320.0,2867.6
322.09,2872.0
324.18,2891.2
326.26,2900.0
328.34,2897.8
330.43,2909.8
332.51,2922.8
334.59,2975.2
336.67,2994.0
338.75,3014.2
340.83,3042.2
342.9,3105.2
344.98,3172.8
347.05,3212.4
349.13,3241.8
351.2,3251.0
353.27,3257.2
355.35,3261.2
357.42,3220.4
359.49,3202.2
361.55,3127.2
363.62,3069.0
365.69,3031.0
367.75,2991.0
369.82,2934.4
371.88,2930.2
373.95,2880.4
376.01,2896.4
378.07,2916.2
380.13,2900.4
382.19,2896.0
384.25,2929.0
386.31,2921.6
388.36,2941.6
390.42,2930.4
392.47,2929.8
394.53,2938.4
396.58,2956.4
398.63,2970.8
400.68,2982.0
402.73,3020.8
404.78,3012.2
406.83,3023.0
408.87,3039.0
410.92,3052.6
412.97,3054.2
415.01,3075.6
417.05,3103.4
419.1,3112.0
421.14,3103.8
423.18,3147.0
425.22,3163.2
427.25,3147.0
429.29,3189.6
431.33,3202.4
433.36,3214.4
435.4,3211.4
437.43,3226.6
439.47,3217.8
441.5,3224.8
443.53,3170.4
445.56,3175.0
447.59,3172.2
449.62,3149.4
451.64,3133.4
453.67,3128.8
455.7,3132.0
457.72,3075.0
459.74,3071.6
461.77,3035.8
463.79,3014.8
465.81,3000.8
467.83,2958.2
469.85,2980.6
471.86,2955.6
473.88,2939.6
475.9,2926.8
477.91,2893.4
479.93,2873.6
481.94,2871.4
483.95,2870.0
485.96,2832.8
487.97,2799.4
489.98,2780.6
491.99,2743.8
494.0,2716.4
496.0,2654.0
498.01,2627.6
500.01,2600.8
502.02,2561.2
504.02,2516.8
506.02,2510.2
508.02,2464.2
510.02,2458.8
512.02,2436.2
514.02,2434.2
516.01,2369.0
518.01,2368.4
520.01,2334.4
522.0,2286.0
523.99,2261.4
525.99,2282.4
527.98,2242.4
529.97,2222.6
531.96,2212.6
533.94,2210.8
535.93,2222.6
537.92,2196.6
539.9,2178.8
541.89,2182.6
543.87,2137.4
545.85,2140.0
547.84,2107.2
549.82,2076.0
551.8,2082.4
553.78,2067.8
555.75,2044.8
557.73,2052.6
559.71,2048.2
561.68,2047.2
563.66,2050.2
565.63,2022.0
567.6,2018.6
569.57,2032.2
571.54,2037.6
573.51,2016.8
575.48,1988.2
577.45,1968.8
579.41,1988.2
581.38,1961.8
583.34,1956.6
585.31,1944.8
587.27,1935.4
589.23,1953.8
591.19,1933.2
593.15,1950.4
595.11,1909.2
597.07,1940.2
599.03,1922.8
600.98,1917.2
602.94,1917.6
604.89,1911.0
606.84,1885.8
608.8,1862.8
610.75,1874.0
612.7,1840.2
614.65,1848.2
616.6,1837.8
618.54,1811.0
620.49,1835.6
622.43,1825.0
624.38,1817.0
626.32,1796.4
628.27,1794.2
630.21,1783.8
632.15,1800.2
634.09,1784.8
636.03,1794.6
637.96,1781.8
639.9,1780.4
641.84,1815.6
643.77,1830.8
645.71,1837.0
647.64,1814.4
649.57,1826.2
651.5,1827.0
653.43,1803.6
655.36,1813.0
657.29,1800.8
659.22,1788.8
661.14,1736.8
663.07,1727.8
664.99,1719.2
666.92,1708.0
668.84,1706.6
670.76,1694.2
672.68,1700.6
674.6,1683.6
676.52,1669.8
678.44,1668.6
680.35,1671.0
682.27,1662.8
684.19,1650.2
686.1,1646.2
688.01,1647.2
689.92,1658.2
691.83,1640.4
693.74,1649.0
695.65,1654.2
697.56,1660.2
699.47,1643.2
701.38,1673.8
703.28,1645.4
705.19,1656.4
707.09,1659.6
708.99,1671.4
710.89,1661.6
712.79,1658.6
714.69,1647.0
716.59,1643.2
718.49,1631.4
720.39,1623.6
722.28,1625.6
724.18,1599.2
726.07,1581.8
727.96,1575.6
729.85,1564.2
731.74,1558.8
733.63,1575.0
735.52,1546.2
737.41,1550.6
739.3,1561.8
741.18,1562.2
743.07,1549.6
744.95,1538.6
746.84,1539.2
748.72,1545.8
750.6,1559.0
752.48,1567.2
754.36,1565.6
756.24,1560.4
758.12,1559.0
759.99,1570.2
761.87,1539.2
763.74,1559.6
765.62,1543.2
767.49,1544.4
769.36,1555.2
771.23,1543.6
773.1,1537.6
774.97,1554.4
776.84,1542.8
778.7,1552.4
780.57,1549.0
782.44,1552.0
784.3,1543.0
786.16,1552.2
788.02,1544.0
789.89,1554.8
791.75,1549.6
793.6,1560.4
795.46,1535.0
797.32,1536.8
799.18,1530.0
801.03,1516.6
802.89,1505.8
804.74,1509.6
806.59,1491.2
808.44,1497.4
810.29,1494.2
812.14,1489.4
813.99,1518.6
815.84,1487.8
817.69,1498.0
819.53,1521.8
821.38,1506.6
823.22,1505.6
825.06,1533.4
826.9,1526.4
828.75,1518.6
830.59,1520.2
832.42,1531.4
834.26,1543.8
836.1,1539.6
837.93,1535.0
839.77,1570.6
841.6,1551.2
843.44,1564.4
845.27,1585.8
847.1,1608.4
848.93,1622.0
850.76,1636.0
852.59,1637.8
854.42,1630.6
856.24,1626.0
858.07,1629.4
859.89,1609.0
861.72,1619.0
863.54,1607.2
865.36,1589.8
867.18,1582.0
869.0,1582.6
870.82,1572.6
872.64,1584.6
874.45,1623.4
876.27,1617.2
878.08,1668.2
879.9,1654.0
881.71,1657.8
883.52,1622.6
885.33,1633.4
887.14,1604.6
888.95,1571.2
890.76,1556.0
892.57,1519.0
894.37,1511.8
896.18,1500.6
897.98,1487.6
899.79,1464.0
901.59,1457.2
903.39,1446.6
905.19,1427.4
906.99,1387.6
908.79,1397.8
910.58,1387.4
912.38,1364.4
914.18,1371.8
915.97,1362.6
917.76,1363.0
919.56,1352.2
921.35,1342.8
923.14,1339.8
924.93,1330.0
926.72,1301.6
928.51,1327.6
930.29,1306.2
932.08,1309.4
933.86,1293.2
935.65,1310.0
937.43,1323.4
939.21,1319.8
940.99,1311.2
942.77,1339.2
944.55,1357.8
946.33,1357.6
948.11,1373.8
949.88,1364.0
951.66,1366.2
953.43,1348.8
955.21,1343.2
956.98,1301.0
958.75,1315.0
960.52,1279.0
962.29,1262.0
964.06,1249.6
965.82,1236.2
967.59,1236.2
969.36,1218.0
971.12,1215.8
972.88,1206.6
974.65,1211.2
976.41,1207.6
978.17,1244.4
979.93,1244.8
981.69,1265.0
983.45,1250.8
985.2,1261.2
986.96,1277.4
988.71,1267.4
990.47,1254.8
992.22,1273.6
993.97,1277.2
995.72,1275.8
997.47,1277.4
999.22,1349.8
1000.97,1395.4
1002.72,1432.4
1004.46,1421.0
1006.21,1362.8
1007.95,1301.6
1009.7,1288.6
1011.44,1287.6
1013.18,1282.8
1014.92,1296.2
1016.66,1288.6
1018.4,1334.8
1020.13,1332.0
1021.87,1320.6
1023.61,1321.4
1025.34,1305.0
1027.07,1304.6
1028.81,1318.2
1030.54,1363.0
1032.27,1346.8
1034.0,1341.2
1035.73,1356.0
1037.46,1348.8
1039.18,1345.4
1040.91,1364.0
1042.63,1358.4
1044.36,1362.6
1046.08,1371.4
1047.8,1379.0
1049.52,1391.6
1051.24,1415.2
1052.96,1401.2
1054.68,1393.2
1056.4,1403.8
1058.11,1413.0
1059.83,1417.0
1061.54,1436.2
1063.26,1393.4
1064.97,1440.4
1066.68,1417.8
1068.39,1458.8
1070.1,1454.6
1071.81,1484.6
1073.51,1509.0
1075.22,1531.2
1076.93,1565.8
1078.63,1573.6
1080.33,1615.0
1082.04,1619.6
1083.74,1583.4
1085.44,1564.6
1087.14,1565.0
1088.84,1517.2
1090.53,1493.0
1092.23,1476.2
1093.93,1437.4
1095.62,1429.4
1097.32,1409.0
1099.01,1389.0
1100.7,1400.2
1102.39,1384.8
1104.08,1373.8
1105.77,1376.0
1107.46,1390.0
1109.15,1385.0
1110.83,1404.4
1112.52,1443.4
1114.2,1446.0
1115.88,1471.6
1117.57,1480.6
1119.25,1516.6
1120.93,1524.8
1122.61,1507.0
1124.28,1477.0
1125.96,1457.8
1127.64,1427.4
1129.31,1382.4
1130.99,1370.2
1132.66,1316.0
1134.33,1268.2
1136.01,1246.0
1137.68,1221.4
1139.35,1196.0
1141.01,1201.0
1142.68,1177.0
1144.35,1178.6
1146.01,1190.6
1147.68,1182.4
1149.34,1190.8
1151.01,1205.2
1152.67,1190.2
1154.33,1195.8
1155.99,1202.4
1157.65,1180.2
1159.3,1152.2
1160.96,1118.4
1162.62,1117.0
1164.27,1060.8
1165.93,1057.6
1167.58,1035.2
1169.23,1031.2
1170.88,1023.4
1172.53,997.2
1174.18,999.0
1175.83,985.0
1177.48,966.8
1179.12,957.8
1180.77,953.6
1182.41,946.2
1184.06,925.0
1185.7,922.6
1187.34,918.0
1188.98,908.8
1190.62,934.8
1192.26,934.6
1193.9,951.6
1195.53,931.0
1197.17,951.4
1198.8,946.8
1200.44,936.4
1202.07,961.8
1203.7,962.4
1205.33,990.4
1206.96,984.4
1208.59,997.8
1210.22,971.2
1211.85,978.2
1213.47,955.6
1215.1,928.0
1216.72,945.0
1218.34,968.8
1219.96,962.2
1221.59,966.8
1223.21,967.4
1224.83,965.8
1226.44,975.6
1228.06,988.0
1229.68,1004.6
1231.29,1032.0
1232.91,1018.4
1234.52,1035.0
1236.13,1059.0
1237.74,1066.4
1239.35,1077.8
1240.96,1069.0
1242.57,1086.0
1244.18,1082.6
1245.78,1101.8
1247.39,1139.0
1248.99,1123.6
1250.6,1131.4
1252.2,1154.4
1253.8,1184.0
1255.4,1207.0
1257.0,1161.4
1258.6,1195.4
1260.2,1167.6
1261.8,1211.2
1263.39,1182.2
1264.99,1190.6
1266.58,1165.6
1268.17,1143.4
1269.77,1136.0
1271.36,1127.4
1272.95,1097.8
1274.54,1077.0
1276.12,1051.6
1277.71,1042.0
1279.3,1042.8
1280.88,1011.0
1282.47,1010.2
1284.05,991.6
1285.63,998.0
1287.21,980.2
1288.79,983.8
1290.37,967.4
1291.95,979.4
1293.53,977.0
1295.1,957.6
1296.68,967.2
1298.25,980.0
1299.83,944.6
1301.4,988.2
1302.97,969.2
1304.54,978.4
1306.11,991.0
1307.68,1002.4
1309.25,1024.4
1310.81,1047.4
1312.38,1026.8
1313.94,1030.4
1315.51,1038.2
1317.07,1035.8
1318.63,1053.6
1320.19,1030.6
1321.75,1038.0
1323.31,1040.6
1324.87,1036.0
1326.43,1023.2
1327.98,1020.4
1329.54,1027.2
1331.09,1028.4
1332.64,1041.2
1334.2,1050.0
1335.75,1056.6
1337.3,1044.6
1338.85,1039.8
1340.4,1023.4
1341.94,1026.4
1343.49,1023.2
1345.03,997.6
1346.58,1010.6
1348.12,1002.4
1349.66,971.8
1351.21,953.0
1352.75,938.6
1354.29,961.2
1355.82,931.2
1357.36,936.0
1358.9,934.6
1360.43,933.0
1361.97,929.8
1363.5,935.2
1365.03,927.8
1366.57,915.0
1368.1,936.4
1369.63,910.8
1371.16,918.6
1372.68,906.6
1374.21,908.8
1375.74,893.8
1377.26,892.2
1378.78,883.0
1380.31,861.0
1381.83,880.2
1383.35,864.8
1384.87,855.6
1386.39,868.4
1387.91,839.2
1389.42,838.4
1390.94,844.0
1392.46,820.0
1393.97,820.4
1395.48,823.8
1397.0,812.0
1398.51,803.6
1400.02,820.0
1401.53,816.2
1403.04,805.2
1404.54,801.2
1406.05,801.8
1407.55,780.8
1409.06,772.2
1410.56,791.0
1412.06,796.2
1413.57,785.2
1415.07,795.8
1416.57,789.2
1418.07,797.2
1419.56,803.6
1421.06,791.0
1422.56,792.2
1424.05,774.6
1425.54,774.6
1427.04,755.8
1428.53,782.2
1430.02,757.0
1431.51,765.4
1433.0,752.6
1434.49,769.8
1435.97,783.4
1437.46,774.6
1438.94,816.4
1440.43,797.4
1441.91,819.2
1443.39,834.6
1444.88,827.6
1446.36,875.6
1447.83,879.0
1449.31,874.0
1450.79,874.0
1452.27,865.6
1453.74,893.6
1455.22,896.2
1456.69,901.6
1458.16,879.6
1459.63,863.0
1461.1,880.2
1462.57,879.8
1464.04,854.0
1465.51,860.0
1466.98,846.0
1468.44,795.4
1469.91,766.8
1471.37,754.4
1472.83,723.0
1474.3,696.2
1475.76,669.6
1477.22,666.2
1478.67,631.6
1480.13,619.4
1481.59,578.4
1483.05,571.2
1484.5,563.6
1485.95,536.8
1487.41,537.8
1488.86,515.0
1490.31,518.0
1491.76,513.4
1493.21,519.4
1494.66,497.8
1496.11,493.6
1497.55,500.0
1499.0,496.2
1500.44,487.0
1501.88,489.0
1503.33,488.6
1504.77,485.0
1506.21,475.4
1507.65,488.2
1509.09,491.4
1510.52,470.0
1511.96,473.0
1513.4,474.4
1514.83,458.0
1516.26,469.0
1517.7,464.0
1519.13,459.4
1520.56,459.8
1521.99,446.2
1523.42,461.8
1524.85,449.4
1526.27,470.4
1527.7,457.2
1529.12,451.0
1530.55,464.0
1531.97,456.2
1533.39,473.2
1534.81,465.8
1536.23,455.0
1537.65,456.8
1539.07,467.0
1540.49,482.0
1541.9,477.0
1543.32,455.6
1544.73,479.2
1546.15,485.0
1547.56,498.2
1548.97,502.8
1550.38,504.6
1551.79,516.2
1553.2,523.0
1554.61,527.6
1556.01,525.4
1557.42,531.8
1558.82,511.8
1560.22,496.0
1561.63,478.4
1563.03,489.6
1564.43,470.6
1565.83,476.0
1567.23,472.4
1568.63,500.4
1570.02,479.2
1571.42,485.4
1572.81,490.4
1574.21,492.2
1575.6,497.2
1576.99,491.4
1578.38,495.6
1579.77,511.2
1581.16,509.0
1582.55,512.6
1583.94,511.8
1585.32,520.8
1586.71,520.8
1588.09,518.8
1589.47,527.6
1590.86,520.2
1592.24,532.0
1593.62,537.8
1595.0,551.4
1596.38,546.0
1597.75,558.0
1599.13,556.2
1600.51,589.8
1601.88,593.2
1603.25,589.2
1604.63,588.4
1606.0,603.6
1607.37,605.2
1608.74,614.2
1610.11,600.8
1611.47,619.0
1612.84,626.8
1614.21,640.4
1615.57,641.8
1616.93,626.4
1618.3,645.2
1619.66,637.8
1621.02,643.2
1622.38,641.4
1623.74,642.4
1625.1,621.2
1626.45,637.8
1627.81,659.8
1629.16,640.4
1630.52,640.0
1631.87,656.0
1633.22,645.2
1634.57,651.4
1635.92,658.8
1637.27,646.4
1638.62,665.8
1639.97,659.2
1641.32,663.2
1642.66,659.0
1644.01,658.2
1645.35,688.2
1646.69,676.8
1648.03,662.0
1649.37,660.8
1650.71,657.6
1652.05,663.8
1653.39,645.0
1654.73,661.4
1656.06,647.0
1657.4,666.4
1658.73,656.8
1660.06,665.8
1661.39,638.6
1662.72,624.0
1664.05,636.0
1665.38,641.2
1666.71,631.2
1668.04,628.8
1669.36,628.0
1670.69,612.4
1672.01,602.0
1673.34,591.0
1674.66,582.6
1675.98,569.6
1677.3,569.0
1678.62,556.0
1679.94,542.4
1681.25,515.4
1682.57,515.6
1683.88,511.0
1685.2,476.0
1686.51,478.8
1687.82,470.8
1689.14,460.0
1690.45,463.2
1691.76,423.8
1693.06,431.8
1694.37,409.0
1695.68,401.6
1696.98,377.4
1698.29,377.2
1699.59,365.0
1700.89,361.2
1702.2,373.6
1703.5,362.8
1704.8,352.4
1706.1,341.8
1707.39,322.0
1708.69,336.2
1709.99,326.4
1711.28,313.4
1712.57,306.2
1713.87,306.2
1715.16,313.6
1716.45,298.4
1717.74,297.0
1719.03,303.0
1720.32,283.2
1721.6,284.8
1722.89,274.0
1724.18,274.6
1725.46,261.2
1726.74,257.4
1728.03,271.4
1729.31,256.6
1730.59,252.2
1731.87,247.6
1733.15,259.4
1734.42,246.8
1735.7,241.0
1736.97,245.2
1738.25,242.0
1739.52,238.2
1740.79,227.8
1742.07,237.6
1743.34,236.2
1744.61,228.4
1745.88,220.2
1747.14,229.6
1748.41,223.2
1749.68,214.8
1750.94,211.0
1752.2,227.2
1753.47,202.0
1754.73,210.2
1755.99,217.4
1757.25,203.8
1758.51,223.4
1759.77,200.4
1761.02,208.6
1762.28,203.2
1763.54,212.0
1764.79,201.4
1766.04,201.2
1767.29,197.4
1768.55,210.0
1769.8,193.0
1771.05,197.4
1772.29,197.6
1773.54,192.8
1774.79,187.6
1776.03,199.2
1777.28,187.2
1778.52,187.8
1779.76,187.6
1781.01,190.4
1782.25,194.6
1783.49,157.2
1784.72,178.0
1785.96,163.8
1787.2,182.2
1788.43,185.2
1789.67,171.6
1790.9,166.2
1792.14,165.4
1793.37,185.2
1794.6,166.8
1795.83,168.6
1797.06,188.2
1798.28,179.0
1799.51,158.0
1800.74,163.0
1801.96,170.0
1803.19,159.6
1804.41,163.8
1805.63,161.0
1806.85,160.8
1808.07,161.2
1809.29,173.2
1810.51,153.0
1811.73,158.6
1812.94,152.6
1814.16,151.0
1815.37,160.0
1816.59,166.6
1817.8,164.2
1819.01,165.2
1820.22,135.6
1821.43,148.2
1822.64,140.0
1823.85,150.4
1825.05,147.4
1826.26,164.8
1827.46,136.8
1828.67,143.4
1829.87,142.4
1831.07,140.6
1832.27,139.4
1833.47,147.2
1834.67,148.2
1835.87,141.4
1837.07,149.0
1838.26,155.2
1839.46,139.0
1840.65,141.8
1841.85,137.4
1843.04,147.2
1844.23,150.4
1845.42,127.6
1846.61,149.0
1847.8,131.0
1848.98,153.2
1850.17,130.2
1851.35,135.6
1852.54,138.8
1853.72,141.2
1854.9,135.8
1856.09,137.2
1857.27,130.8
1858.45,125.4
1859.62,151.8
1860.8,136.6
1861.98,122.4
1863.15,132.6
1864.33,141.4
1865.5,127.6
1866.68,145.0
1867.85,135.8
1869.02,125.4
1870.19,145.4
1871.36,121.4
1872.52,136.2
1873.69,141.2
1874.86,132.8
1876.02,141.8
1877.19,133.8
1878.35,118.2
1879.51,141.0
1880.67,139.0
1881.83,113.2
1882.99,136.6
1884.15,135.0
1885.31,125.2
1886.46,130.6
1887.62,136.2
1888.77,118.2
1889.92,134.4
1891.08,119.2
1892.23,116.6
1893.38,126.0
