Wavenumber,Intensities
282.29,3349.6
284.39,3323.8
286.49,3311.8
288.59,3308.4
290.7,3308.6
292.79,3307.0
294.89,3272.4
296.99,3259.4
299.09,3241.4
301.18,3228.2
303.28,3194.4
305.37,3211.0
307.47,3212.8
309.56,3185.4
311.65,3180.6
313.74,3166.2
315.83,3153.6
317.92,3116.4
320.0,3153.0
322.09,3184.0
324.18,3180.2
326.26,3153.4
328.34,3186.4
330.43,3198.8
332.51,3236.2
334.59,3260.8
336.67,3317.4
338.75,3328.8
340.83,3383.2
342.9,3439.2
344.98,3541.8
347.05,3566.0
349.13,3625.2
351.2,3668.2
353.27,3656.0
355.35,3668.0
357.42,3611.8
359.49,3543.6
361.55,3514.6
363.62,3425.6
365.69,3336.4
367.75,3280.4
369.82,3259.8
371.88,3195.2
373.95,3182.6
376.01,3187.2
378.07,3146.6
380.13,3174.2
382.19,3162.2
384.25,3147.6
386.31,3158.4
388.36,3171.0
390.42,3192.8
392.47,3187.0
394.53,3226.4
396.58,3239.6
398.63,3261.4
400.68,3268.4
402.73,3279.0
404.78,3320.6
406.83,3308.6
408.87,3316.0
410.92,3332.2
412.97,3361.0
415.01,3379.8
417.05,3405.0
419.1,3438.4
421.14,3457.0
423.18,3496.2
425.22,3485.4
427.25,3490.8
429.29,3492.4
431.33,3513.0
433.36,3516.0
435.4,3561.0
437.43,3560.0
439.47,3540.8
441.5,3551.6
443.53,3521.2
445.56,3505.0
447.59,3500.4
449.62,3490.6
451.64,3473.8
453.67,3456.0
455.7,3406.0
457.72,3413.2
459.74,3371.6
461.77,3354.6
463.79,3334.6
465.81,3294.2
467.83,3294.6
469.85,3264.4
471.86,3263.2
473.88,3231.0
475.9,3181.0
477.91,3181.6
479.93,3147.4
481.94,3116.4
483.95,3107.6
485.96,3087.0
487.97,3059.6
489.98,3013.2
491.99,3005.2
494.0,2956.6
496.0,2895.6
498.01,2877.2
500.01,2833.2
502.02,2779.8
504.02,2768.8
506.02,2741.2
508.02,2727.0
510.02,2691.6
512.02,2670.8
514.02,2643.2
516.01,2623.6
518.01,2623.0
520.01,2583.8
522.0,2586.2
523.99,2526.8
525.99,2512.6
527.98,2485.2
529.97,2454.0
531.96,2464.2
533.94,2458.0
535.93,2462.0
537.92,2424.8
539.9,2402.8
541.89,2390.8
543.87,2354.2
545.85,2338.8
547.84,2294.6
549.82,2280.4
551.8,2306.0
553.78,2293.0
555.75,2259.0
557.73,2275.4
559.71,2248.0
561.68,2217.4
563.66,2258.4
565.63,2231.8
567.6,2220.2
569.57,2246.8
571.54,2233.4
573.51,2220.4
575.48,2199.0
577.45,2196.6
579.41,2169.0
581.38,2180.2
583.34,2179.4
585.31,2168.6
587.27,2155.6
589.23,2152.8
591.19,2147.2
593.15,2145.8
595.11,2166.4
597.07,2131.6
599.03,2157.2
600.98,2111.6
602.94,2118.8
604.89,2079.4
606.84,2061.8
608.8,2054.0
610.75,2050.2
612.7,2036.8
614.65,2029.4
616.6,2029.8
618.54,2035.0
620.49,2020.0
622.43,2056.4
624.38,2004.0
626.32,2001.8
628.27,1996.8
630.21,1992.6
632.15,1968.2
634.09,1948.4
636.03,1957.2
637.96,1972.0
639.9,2015.6
641.84,2025.0
643.77,2043.8
645.71,2071.2
647.64,2057.2
649.57,2027.8
651.5,2035.8
653.43,2026.6
655.36,1996.6
657.29,1988.0
659.22,1967.4
661.14,1928.8
663.07,1922.2
664.99,1930.0
666.92,1896.2
668.84,1869.6
670.76,1877.2
672.68,1881.6
674.6,1857.4
676.52,1862.0
678.44,1836.2
680.35,1834.2
682.27,1835.8
684.19,1838.6
686.1,1821.8
688.01,1834.4
689.92,1833.8
691.83,1813.6
693.74,1838.2
695.65,1834.8
697.56,1875.0
699.47,1859.0
701.38,1838.8
703.28,1874.2
705.19,1870.0
707.09,1867.0
708.99,1866.0
710.89,1874.8
712.79,1849.8
714.69,1833.8
716.59,1819.4
718.49,1814.2
720.39,1801.2
722.28,1786.2
724.18,1772.2
726.07,1767.0
727.96,1754.8
729.85,1760.0
731.74,1730.4
733.63,1714.4
735.52,1725.8
737.41,1739.2
739.3,1731.6
741.18,1725.2
743.07,1742.8
744.95,1730.6
746.84,1712.0
748.72,1703.4
750.6,1713.2
752.48,1746.6
754.36,1739.2
756.24,1738.0
758.12,1752.6
759.99,1713.4
761.87,1761.2
763.74,1724.8
765.62,1721.2
767.49,1711.0
769.36,1715.0
771.23,1711.8
773.1,1719.4
774.97,1717.6
776.84,1724.0
778.7,1721.6
780.57,1708.8
782.44,1737.2
784.3,1722.2
786.16,1706.4
788.02,1722.8
789.89,1704.6
791.75,1679.8
793.6,1687.0
795.46,1692.4
797.32,1697.2
799.18,1686.4
801.03,1681.2
802.89,1686.6
804.74,1666.8
806.59,1662.2
808.44,1684.8
810.29,1670.8
812.14,1672.8
813.99,1656.8
815.84,1668.2
817.69,1662.2
819.53,1675.4
821.38,1699.6
823.22,1694.4
825.06,1709.0
826.9,1707.8
828.75,1744.4
830.59,1721.6
832.42,1746.2
834.26,1728.6
836.1,1737.8
837.93,1756.4
839.77,1753.4
841.6,1775.4
843.44,1776.0
845.27,1813.6
847.1,1842.8
848.93,1864.8
850.76,1890.0
852.59,1918.0
854.42,1896.2
856.24,1887.2
858.07,1888.4
859.89,1888.4
861.72,1893.2
863.54,1832.2
865.36,1828.2
867.18,1825.8
869.0,1846.6
870.82,1856.0
872.64,1862.0
874.45,1897.4
876.27,1912.8
878.08,1948.4
879.9,1957.8
881.71,1951.8
883.52,1918.8
885.33,1915.2
887.14,1880.4
888.95,1850.4
890.76,1812.8
892.57,1806.2
894.37,1789.8
896.18,1773.2
897.98,1751.2
899.79,1731.8
901.59,1707.2
903.39,1691.0
905.19,1664.2
906.99,1645.6
908.79,1624.6
910.58,1602.8
912.38,1586.4
914.18,1608.6
915.97,1585.6
917.76,1580.8
919.56,1581.8
921.35,1571.8
923.14,1581.8
924.93,1540.4
926.72,1561.2
928.51,1536.0
930.29,1513.4
932.08,1531.0
933.86,1536.8
935.65,1528.2
937.43,1532.0
939.21,1552.2
940.99,1538.8
942.77,1572.0
944.55,1569.0
946.33,1616.6
948.11,1619.8
949.88,1609.2
951.66,1627.6
953.43,1572.8
955.21,1553.8
956.98,1557.4
958.75,1519.0
960.52,1525.0
962.29,1477.6
964.06,1464.6
965.82,1445.8
967.59,1427.6
969.36,1433.8
971.12,1419.0
972.88,1427.6
974.65,1409.6
976.41,1440.0
978.17,1447.4
979.93,1466.0
981.69,1477.4
983.45,1478.2
985.2,1466.0
986.96,1475.8
988.71,1510.2
990.47,1493.0
992.22,1501.2
993.97,1493.0
995.72,1496.6
997.47,1562.8
999.22,1587.2
1000.97,1678.4
1002.72,1734.6
1004.46,1688.8
1006.21,1615.8
1007.95,1577.0
1009.7,1545.8
1011.44,1532.4
1013.18,1514.2
1014.92,1527.0
1016.66,1552.2
1018.4,1561.2
1020.13,1569.0
1021.87,1594.4
1023.61,1571.4
1025.34,1573.2
1027.07,1577.8
1028.81,1591.0
1030.54,1612.2
1032.27,1605.4
1034.0,1613.6
1035.73,1611.4
1037.46,1609.2
1039.18,1617.4
1040.91,1622.0
1042.63,1649.6
1044.36,1667.2
1046.08,1652.4
1047.8,1666.6
1049.52,1642.8
1051.24,1655.6
1052.96,1699.4
1054.68,1688.8
1056.4,1683.4
1058.11,1685.8
1059.83,1678.8
1061.54,1716.6
1063.26,1708.0
1064.97,1721.0
1066.68,1722.2
1068.39,1751.2
1070.1,1780.4
1071.81,1806.6
1073.51,1833.2
1075.22,1873.2
1076.93,1920.4
1078.63,1906.0
1080.33,1943.8
1082.04,1943.8
1083.74,1962.8
1085.44,1933.4
1087.14,1893.0
1088.84,1860.8
1090.53,1798.4
1092.23,1794.4
1093.93,1759.8
1095.62,1738.6
1097.32,1726.6
1099.01,1699.4
1100.7,1681.6
1102.39,1695.6
1104.08,1672.0
1105.77,1671.4
1107.46,1672.0
1109.15,1684.6
1110.83,1712.2
1112.52,1745.8
1114.2,1765.6
1115.88,1797.4
1117.57,1814.2
1119.25,1847.8
1120.93,1856.2
1122.61,1873.2
1124.28,1826.4
1125.96,1784.6
1127.64,1759.6
1129.31,1710.8
1130.99,1629.0
1132.66,1596.8
1134.33,1524.0
1136.01,1496.6
1137.68,1482.4
1139.35,1446.0
1141.01,1438.4
1142.68,1419.0
1144.35,1408.6
1146.01,1440.2
1147.68,1431.8
1149.34,1438.4
1151.01,1412.4
1152.67,1420.8
1154.33,1428.6
1155.99,1401.6
1157.65,1385.0
1159.3,1375.4
1160.96,1320.6
1162.62,1286.2
1164.27,1272.0
1165.93,1252.0
1167.58,1246.6
1169.23,1215.6
1170.88,1188.0
1172.53,1181.0
1174.18,1169.6
1175.83,1148.6
1177.48,1130.8
1179.12,1086.4
1180.77,1099.6
1182.41,1084.0
1184.06,1071.4
1185.7,1066.2
1187.34,1063.8
1188.98,1076.6
1190.62,1054.2
1192.26,1094.0
1193.9,1075.0
1195.53,1091.2
1197.17,1092.6
1198.8,1109.6
1200.44,1118.6
1202.07,1124.8
1203.7,1121.0
1205.33,1141.8
1206.96,1139.6
1208.59,1146.6
1210.22,1148.0
1211.85,1146.6
1213.47,1157.6
1215.1,1114.2
1216.72,1131.4
1218.34,1119.2
1219.96,1123.2
1221.59,1123.2
1223.21,1128.4
1224.83,1148.2
1226.44,1175.6
1228.06,1183.6
1229.68,1181.6
1231.29,1219.6
1232.91,1245.4
1234.52,1243.8
1236.13,1242.4
1237.74,1265.0
1239.35,1307.6
1240.96,1302.6
1242.57,1308.6
1244.18,1321.8
1245.78,1342.6
1247.39,1363.8
1248.99,1360.6
1250.6,1389.6
1252.2,1400.6
1253.8,1417.0
1255.4,1396.6
1257.0,1429.0
1258.6,1415.4
1260.2,1431.2
1261.8,1460.6
1263.39,1435.4
1264.99,1440.2
1266.58,1430.6
1268.17,1403.0
1269.77,1388.2
1271.36,1360.6
1272.95,1315.6
1274.54,1302.4
1276.12,1273.6
1277.71,1228.8
1279.3,1245.4
1280.88,1216.0
1282.47,1202.2
1284.05,1207.2
1285.63,1169.6
1287.21,1176.0
1288.79,1164.0
1290.37,1154.4
1291.95,1156.6
1293.53,1149.4
1295.1,1155.8
1296.68,1153.8
1298.25,1158.0
1299.83,1147.2
1301.4,1155.8
1302.97,1171.6
1304.54,1199.8
1306.11,1197.4
1307.68,1201.2
1309.25,1241.6
1310.81,1234.0
1312.38,1256.2
1313.94,1271.4
1315.51,1269.0
1317.07,1258.4
1318.63,1263.4
1320.19,1259.8
1321.75,1256.6
1323.31,1242.4
1324.87,1251.0
1326.43,1259.0
1327.98,1258.0
1329.54,1255.2
1331.09,1232.2
1332.64,1262.2
1334.2,1230.0
1335.75,1268.4
1337.3,1268.6
1338.85,1262.8
1340.4,1267.4
1341.94,1269.4
1343.49,1231.4
1345.03,1227.0
1346.58,1218.0
1348.12,1200.4
1349.66,1166.4
1351.21,1163.2
1352.75,1160.8
1354.29,1162.0
1355.82,1152.0
1357.36,1124.4
1358.9,1120.2
1360.43,1127.0
1361.97,1106.6
1363.5,1139.4
1365.03,1101.8
1366.57,1111.0
1368.1,1115.4
1369.63,1114.6
1371.16,1100.8
1372.68,1101.6
1374.21,1099.2
1375.74,1096.0
1377.26,1076.4
1378.78,1067.2
1380.31,1040.6
1381.83,1036.6
1383.35,1034.4
1384.87,1026.4
1386.39,1013.0
1387.91,1014.6
1389.42,998.4
1390.94,1037.2
1392.46,988.0
1393.97,990.4
1395.48,976.2
1397.0,974.0
1398.51,964.4
1400.02,959.2
1401.53,968.6
1403.04,969.6
1404.54,965.0
1406.05,964.6
1407.55,961.0
1409.06,949.2
1410.56,935.6
1412.06,949.6
1413.57,938.0
1415.07,953.2
1416.57,933.0
1418.07,932.2
1419.56,942.4
1421.06,947.2
1422.56,936.4
1424.05,929.0
1425.54,919.4
1427.04,914.0
1428.53,922.0
1430.02,901.4
1431.51,907.0
1433.0,902.8
1434.49,902.2
1435.97,926.4
1437.46,930.2
1438.94,967.4
1440.43,980.4
1441.91,993.0
1443.39,992.8
1444.88,1001.6
1446.36,1034.0
1447.83,1056.8
1449.31,1070.0
1450.79,1051.0
1452.27,1058.0
1453.74,1071.4
1455.22,1063.2
1456.69,1057.2
1458.16,1067.0
1459.63,1062.6
1461.1,1078.0
1462.57,1067.8
1464.04,1047.2
1465.51,1051.0
1466.98,1004.6
1468.44,966.8
1469.91,959.2
1471.37,912.0
1472.83,878.8
1474.3,830.6
1475.76,794.0
1477.22,760.0
1478.67,722.0
1480.13,699.4
1481.59,671.4
1483.05,660.6
1484.5,639.6
1485.95,616.6
1487.41,618.0
1488.86,606.8
1490.31,595.0
1491.76,583.2
1493.21,568.2
1494.66,573.6
1496.11,554.6
1497.55,571.0
1499.0,550.8
1500.44,552.4
1501.88,551.4
1503.33,528.6
1504.77,535.2
1506.21,538.2
1507.65,554.2
1509.09,532.8
1510.52,530.8
1511.96,528.6
1513.4,532.2
1514.83,534.0
1516.26,523.4
1517.7,540.6
1519.13,518.8
1520.56,544.6
1521.99,501.4
1523.42,516.0
1524.85,514.2
1526.27,499.8
1527.7,519.2
1529.12,508.8
1530.55,504.2
1531.97,524.6
1533.39,526.0
1534.81,522.2
1536.23,512.0
1537.65,506.4
1539.07,530.8
1540.49,525.0
1541.9,525.4
1543.32,527.8
1544.73,528.0
1546.15,530.6
1547.56,537.6
1548.97,551.2
1550.38,550.6
1551.79,560.2
1553.2,578.6
1554.61,565.6
1556.01,582.4
1557.42,581.0
1558.82,553.0
1560.22,538.2
1561.63,525.8
1563.03,532.2
1564.43,524.2
1565.83,529.6
1567.23,547.8
1568.63,525.4
1570.02,537.8
1571.42,532.8
1572.81,555.2
1574.21,535.4
1575.6,531.2
1576.99,539.8
1578.38,553.6
1579.77,561.6
1581.16,561.0
1582.55,560.8
1583.94,568.0
1585.32,575.4
1586.71,582.2
1588.09,576.8
1589.47,577.8
1590.86,583.4
1592.24,568.2
1593.62,575.4
1595.0,598.0
1596.38,600.6
1597.75,609.8
1599.13,619.0
1600.51,630.2
1601.88,642.2
1603.25,649.2
1604.63,673.2
1606.0,649.6
1607.37,658.4
1608.74,684.2
1610.11,663.8
1611.47,695.2
1612.84,697.8
1614.21,693.4
1615.57,694.6
1616.93,696.2
1618.3,682.0
1619.66,704.6
1621.02,702.4
1622.38,683.6
1623.74,695.6
1625.1,700.2
1626.45,704.0
1627.81,704.6
1629.16,703.4
1630.52,712.0
1631.87,692.6
1633.22,714.0
1634.57,703.4
1635.92,710.8
1637.27,704.6
1638.62,716.0
1639.97,714.6
1641.32,708.4
1642.66,717.6
1644.01,736.6
1645.35,715.4
1646.69,731.4
1648.03,704.0
1649.37,747.0
1650.71,735.8
1652.05,727.0
1653.39,736.4
1654.73,722.2
1656.06,738.0
1657.4,734.0
1658.73,744.2
1660.06,715.2
1661.39,702.4
1662.72,707.8
1664.05,708.2
1665.38,720.4
1666.71,694.0
1668.04,694.8
1669.36,688.6
1670.69,670.4
1672.01,667.8
1673.34,651.0
1674.66,648.4
1675.98,651.0
1677.3,622.8
1678.62,618.4
1679.94,606.8
1681.25,610.4
1682.57,577.4
1683.88,570.2
1685.2,559.4
1686.51,527.8
1687.82,515.6
1689.14,497.4
1690.45,499.0
1691.76,476.8
1693.06,478.2
1694.37,454.2
1695.68,455.4
1696.98,446.6
1698.29,411.6
1699.59,437.6
1700.89,402.6
1702.2,382.8
1703.5,393.4
1704.8,384.6
1706.1,370.0
1707.39,361.4
1708.69,345.6
1709.99,348.8
1711.28,340.2
1712.57,334.8
1713.87,335.2
1715.16,337.8
1716.45,327.4
1717.74,327.4
1719.03,313.6
1720.32,313.8
1721.6,294.2
1722.89,307.0
1724.18,312.4
1725.46,296.2
1726.74,292.4
1728.03,299.4
1729.31,284.2
1730.59,287.8
1731.87,282.4
1733.15,273.2
1734.42,262.8
1735.7,267.4
1736.97,261.6
1738.25,280.2
1739.52,258.6
1740.79,265.4
1742.07,260.6
1743.34,246.4
1744.61,270.4
1745.88,254.4
1747.14,249.6
1748.41,245.4
1749.68,257.4
1750.94,250.6
1752.2,246.0
1753.47,254.2
1754.73,242.8
1755.99,255.4
1757.25,231.6
1758.51,240.4
1759.77,246.0
1761.02,227.8
1762.28,238.6
1763.54,232.8
1764.79,227.4
1766.04,224.6
1767.29,236.4
1768.55,212.6
1769.8,215.4
1771.05,227.2
1772.29,227.4
1773.54,217.8
1774.79,219.8
1776.03,217.2
1777.28,195.8
1778.52,202.8
1779.76,197.2
1781.01,198.2
1782.25,191.2
1783.49,214.2
1784.72,199.0
1785.96,196.8
1787.2,197.2
1788.43,207.4
1789.67,202.6
1790.9,197.4
1792.14,192.4
1793.37,201.2
1794.6,184.0
1795.83,198.0
1797.06,179.8
1798.28,190.0
1799.51,194.6
1800.74,180.6
1801.96,198.8
1803.19,195.0
1804.41,181.6
1805.63,173.2
1806.85,189.8
1808.07,176.2
1809.29,183.8
1810.51,189.6
1811.73,182.8
1812.94,171.4
1814.16,166.2
1815.37,169.8
1816.59,163.2
1817.8,166.4
1819.01,169.4
1820.22,181.4
1821.43,171.0
1822.64,167.8
1823.85,183.0
1825.05,158.6
1826.26,182.2
1827.46,163.0
1828.67,155.2
1829.87,160.2
1831.07,176.4
1832.27,173.8
1833.47,178.6
1834.67,185.4
1835.87,144.2
1837.07,161.4
1838.26,150.6
1839.46,174.6
1840.65,152.2
1841.85,173.8
1843.04,171.2
1844.23,155.0
1845.42,163.2
1846.61,165.0
1847.8,155.6
1848.98,175.8
1850.17,167.6
1851.35,163.2
1852.54,158.6
1853.72,154.4
1854.9,169.6
1856.09,166.4
1857.27,162.6
1858.45,140.4
1859.62,135.2
1860.8,153.6
1861.98,155.6
1863.15,163.6
1864.33,148.2
1865.5,148.0
1866.68,141.6
1867.85,165.6
1869.02,147.4
1870.19,136.8
1871.36,135.6
1872.52,137.8
1873.69,146.2
1874.86,145.0
1876.02,134.4
1877.19,140.2
1878.35,152.0
1879.51,143.6
1880.67,156.4
1881.83,131.6
1882.99,140.6
1884.15,151.2
1885.31,140.4
1886.46,152.0
1887.62,131.2
1888.77,131.2
1889.92,130.0
1891.08,146.8
1892.23,129.6
1893.38,134.6
