Wavenumber,Intensities
282.29,3440.8
284.39,3431.6
286.49,3433.4
288.59,3379.0
290.7,3361.0
292.79,3382.0
294.89,3333.8
296.99,3321.0
299.09,3298.4
301.18,3308.8
303.28,3304.6
305.37,3265.2
307.47,3267.4
309.56,3271.4
311.65,3247.4
313.74,3254.6
315.83,3240.0
317.92,3224.2
320.0,3234.2
322.09,3235.6
324.18,3253.8
326.26,3239.0
328.34,3280.4
330.43,3287.6
332.51,3332.0
334.59,3350.4
336.67,3397.0
338.75,3450.4
340.83,3487.4
342.9,3561.6
344.98,3623.2
347.05,3700.4
349.13,3741.2
351.2,3781.0
353.27,3754.6
355.35,3778.0
357.42,3738.0
359.49,3663.6
361.55,3596.4
363.62,3481.8
365.69,3432.4
367.75,3404.2
369.82,3351.4
371.88,3264.8
373.95,3261.8
376.01,3260.0
378.07,3250.0
380.13,3239.8
382.19,3236.2
384.25,3232.4
386.31,3255.4
388.36,3264.2
390.42,3280.0
392.47,3247.8
394.53,3296.4
396.58,3308.0
398.63,3320.6
400.68,3355.6
402.73,3395.0
404.78,3380.0
406.83,3387.6
408.87,3411.0
410.92,3400.2
412.97,3395.2
415.01,3462.8
417.05,3489.2
419.1,3529.8
421.14,3552.0
423.18,3578.0
425.22,3597.2
427.25,3572.0
429.29,3613.2
431.33,3613.4
433.36,3630.6
435.4,3670.2
437.43,3666.2
439.47,3619.2
441.5,3637.8
443.53,3587.2
445.56,3587.8
447.59,3624.4
449.62,3596.8
451.64,3559.0
453.67,3548.4
455.7,3519.8
457.72,3483.2
459.74,3479.4
461.77,3440.0
463.79,3386.4
465.81,3383.2
467.83,3380.6
469.85,3346.6
471.86,3341.2
473.88,3308.2
475.9,3284.0
477.91,3237.0
479.93,3239.6
481.94,3204.4
483.95,3190.2
485.96,3173.2
487.97,3136.0
489.98,3097.4
491.99,3068.0
494.0,3015.8
496.0,2946.0
498.01,2934.2
500.01,2907.0
502.02,2874.4
504.02,2812.0
506.02,2786.0
508.02,2754.2
510.02,2762.6
512.02,2759.0
514.02,2726.8
516.01,2670.0
518.01,2692.6
520.01,2635.4
522.0,2622.8
523.99,2572.2
525.99,2584.2
527.98,2531.8
529.97,2520.2
531.96,2537.8
533.94,2518.8
535.93,2494.4
537.92,2495.2
539.9,2444.6
541.89,2451.0
543.87,2396.6
545.85,2395.0
547.84,2362.2
549.82,2354.0
551.8,2332.8
553.78,2325.8
555.75,2335.6
557.73,2332.6
559.71,2330.4
561.68,2289.6
563.66,2304.6
565.63,2299.4
567.6,2265.0
569.57,2292.6
571.54,2273.6
573.51,2258.4
575.48,2240.0
577.45,2243.0
579.41,2225.0
581.38,2248.6
583.34,2229.0
585.31,2222.4
587.27,2191.6
589.23,2230.0
591.19,2190.2
593.15,2197.4
595.11,2180.8
597.07,2184.2
599.03,2177.0
600.98,2151.8
602.94,2160.6
604.89,2135.0
606.84,2119.2
608.8,2110.6
610.75,2100.6
612.7,2085.6
614.65,2061.4
616.6,2064.8
618.54,2089.6
620.49,2067.8
622.43,2067.0
624.38,2043.6
626.32,2025.0
628.27,2034.0
630.21,2015.2
632.15,2013.8
634.09,2000.8
636.03,2005.4
637.96,2001.4
639.9,2048.8
641.84,2069.2
643.77,2088.8
645.71,2099.2
647.64,2070.8
649.57,2081.6
651.5,2050.4
653.43,2051.8
655.36,2025.2
657.29,2004.8
659.22,2000.8
661.14,1954.4
663.07,1955.2
664.99,1967.8
666.92,1935.4
668.84,1897.8
670.76,1936.4
672.68,1910.4
674.6,1890.6
676.52,1879.6
678.44,1893.2
680.35,1858.8
682.27,1905.4
684.19,1872.2
686.1,1848.6
688.01,1867.2
689.92,1852.6
691.83,1855.6
693.74,1843.8
695.65,1865.8
697.56,1881.0
699.47,1882.0
701.38,1867.6
703.28,1916.0
705.19,1908.6
707.09,1903.8
708.99,1897.8
710.89,1881.6
712.79,1870.4
714.69,1861.2
716.59,1841.4
718.49,1870.8
720.39,1838.6
722.28,1812.4
724.18,1828.6
726.07,1802.0
727.96,1795.8
729.85,1794.8
731.74,1773.0
733.63,1751.8
735.52,1776.0
737.41,1773.2
739.3,1756.4
741.18,1742.2
743.07,1755.8
744.95,1752.2
746.84,1744.6
748.72,1725.4
750.6,1763.4
752.48,1764.8
754.36,1755.0
756.24,1781.6
758.12,1795.0
759.99,1752.0
761.87,1784.6
763.74,1790.0
765.62,1760.0
767.49,1752.2
769.36,1752.2
771.23,1746.0
773.1,1743.8
774.97,1755.0
776.84,1764.2
778.7,1736.4
780.57,1752.0
782.44,1752.8
784.3,1758.6
786.16,1743.6
788.02,1732.6
789.89,1735.4
791.75,1719.2
793.6,1725.0
795.46,1732.8
797.32,1699.0
799.18,1726.2
801.03,1707.8
802.89,1701.0
804.74,1718.4
806.59,1696.4
808.44,1706.2
810.29,1677.4
812.14,1720.8
813.99,1686.8
815.84,1704.6
817.69,1706.8
819.53,1699.0
821.38,1713.8
823.22,1743.8
825.06,1731.2
826.9,1748.8
828.75,1773.2
830.59,1776.2
832.42,1809.0
834.26,1771.8
836.1,1798.8
837.93,1796.6
839.77,1822.6
841.6,1824.2
843.44,1843.8
845.27,1884.2
847.1,1890.0
848.93,1921.4
850.76,1921.8
852.59,1959.8
854.42,1956.0
856.24,1973.6
858.07,1953.8
859.89,1956.0
861.72,1934.0
863.54,1912.0
865.36,1931.8
867.18,1908.4
869.0,1912.6
870.82,1927.4
872.64,1948.6
874.45,1976.0
876.27,2007.0
878.08,2028.0
879.9,2029.6
881.71,2015.0
883.52,2025.4
885.33,1970.0
887.14,1949.6
888.95,1921.2
890.76,1884.2
892.57,1862.6
894.37,1836.8
896.18,1836.2
897.98,1813.6
899.79,1794.6
901.59,1761.0
903.39,1731.2
905.19,1718.8
906.99,1706.2
908.79,1681.8
910.58,1666.0
912.38,1634.4
914.18,1663.8
915.97,1663.4
917.76,1650.0
919.56,1631.8
921.35,1621.2
923.14,1625.0
924.93,1598.4
926.72,1594.8
928.51,1588.4
930.29,1598.4
932.08,1582.4
933.86,1587.4
935.65,1588.8
937.43,1584.0
939.21,1593.4
940.99,1632.4
942.77,1623.2
944.55,1670.0
946.33,1672.0
948.11,1669.6
949.88,1684.4
951.66,1664.6
953.43,1649.6
955.21,1638.0
956.98,1618.0
958.75,1575.6
960.52,1567.4
962.29,1552.0
964.06,1543.4
965.82,1510.2
967.59,1488.6
969.36,1472.4
971.12,1491.2
972.88,1467.4
974.65,1478.6
976.41,1486.2
978.17,1510.6
979.93,1522.6
981.69,1526.2
983.45,1533.2
985.2,1515.0
986.96,1532.6
988.71,1568.0
990.47,1571.8
992.22,1576.6
993.97,1562.4
995.72,1562.0
997.47,1619.0
999.22,1646.6
1000.97,1743.6
1002.72,1831.8
1004.46,1772.2
1006.21,1700.8
1007.95,1643.2
1009.7,1615.0
1011.44,1583.2
1013.18,1593.6
1014.92,1600.0
1016.66,1629.6
1018.4,1625.0
1020.13,1630.4
1021.87,1644.8
1023.61,1642.4
1025.34,1644.0
1027.07,1628.6
1028.81,1635.8
1030.54,1675.2
1032.27,1674.6
1034.0,1696.2
1035.73,1701.6
1037.46,1681.4
1039.18,1682.8
1040.91,1691.0
1042.63,1701.0
1044.36,1747.0
1046.08,1732.0
1047.8,1732.6
1049.52,1752.4
1051.24,1735.2
1052.96,1751.0
1054.68,1791.2
1056.4,1769.4
1058.11,1773.0
1059.83,1780.2
1061.54,1801.8
1063.26,1798.4
1064.97,1806.0
1066.68,1812.6
1068.39,1829.6
1070.1,1861.4
1071.81,1881.0
1073.51,1917.4
1075.22,1972.2
1076.93,2011.0
1078.63,2038.2
1080.33,2036.4
1082.04,2047.8
1083.74,2067.0
1085.44,2030.4
1087.14,2007.6
1088.84,1945.6
1090.53,1904.8
1092.23,1885.0
1093.93,1848.8
1095.62,1820.4
1097.32,1814.8
1099.01,1776.6
1100.7,1781.8
1102.39,1768.0
1104.08,1742.6
1105.77,1753.2
1107.46,1761.6
1109.15,1749.2
1110.83,1795.8
1112.52,1831.0
1114.2,1897.4
1115.88,1900.8
1117.57,1934.2
1119.25,1948.2
1120.93,1953.8
1122.61,1936.2
1124.28,1942.4
1125.96,1876.6
1127.64,1833.2
1129.31,1773.2
1130.99,1727.0
1132.66,1655.8
1134.33,1616.0
1136.01,1563.4
1137.68,1540.0
1139.35,1511.2
1141.01,1492.2
1142.68,1478.2
1144.35,1488.2
1146.01,1488.2
1147.68,1511.0
1149.34,1515.2
1151.01,1503.8
1152.67,1479.4
1154.33,1488.6
1155.99,1470.0
1157.65,1433.8
1159.3,1411.6
1160.96,1382.2
1162.62,1353.2
1164.27,1317.6
1165.93,1276.6
1167.58,1263.4
1169.23,1254.4
1170.88,1231.4
1172.53,1212.4
1174.18,1193.8
1175.83,1197.4
1177.48,1161.8
1179.12,1144.2
1180.77,1135.4
1182.41,1103.8
1184.06,1088.8
1185.7,1105.0
1187.34,1107.2
1188.98,1103.6
1190.62,1105.8
1192.26,1116.8
1193.9,1107.0
1195.53,1140.6
1197.17,1138.0
1198.8,1139.8
1200.44,1145.2
1202.07,1166.0
1203.7,1171.8
1205.33,1203.2
1206.96,1187.6
1208.59,1197.6
1210.22,1184.4
1211.85,1178.6
1213.47,1178.0
1215.1,1176.4
1216.72,1164.8
1218.34,1153.4
1219.96,1150.4
1221.59,1188.8
1223.21,1164.8
1224.83,1200.4
1226.44,1237.8
1228.06,1231.4
1229.68,1226.4
1231.29,1264.2
1232.91,1295.4
1234.52,1280.8
1236.13,1320.0
1237.74,1327.4
1239.35,1343.4
1240.96,1360.4
1242.57,1361.0
1244.18,1373.6
1245.78,1399.8
1247.39,1418.0
1248.99,1441.8
1250.6,1443.6
1252.2,1457.4
1253.8,1465.4
1255.4,1461.8
1257.0,1498.4
1258.6,1510.2
1260.2,1513.4
1261.8,1515.2
1263.39,1512.8
1264.99,1527.4
1266.58,1488.4
1268.17,1460.8
1269.77,1451.2
1271.36,1418.2
1272.95,1385.8
1274.54,1355.6
1276.12,1336.6
1277.71,1280.8
1279.3,1300.0
1280.88,1266.6
1282.47,1255.0
1284.05,1237.8
1285.63,1231.0
1287.21,1216.2
1288.79,1206.4
1290.37,1219.8
1291.95,1209.0
1293.53,1189.0
1295.1,1187.8
1296.68,1206.2
1298.25,1206.0
1299.83,1201.8
1301.4,1212.8
1302.97,1234.8
1304.54,1253.8
1306.11,1248.8
1307.68,1273.4
1309.25,1282.8
1310.81,1312.2
1312.38,1304.0
1313.94,1319.2
1315.51,1317.4
1317.07,1322.4
1318.63,1322.2
1320.19,1320.0
1321.75,1331.8
1323.31,1312.2
1324.87,1323.2
1326.43,1318.2
1327.98,1314.6
1329.54,1301.2
1331.09,1339.8
1332.64,1312.4
1334.2,1297.2
1335.75,1325.4
1337.3,1324.0
1338.85,1337.4
1340.4,1326.6
1341.94,1341.6
1343.49,1307.6
1345.03,1288.4
1346.58,1272.0
1348.12,1251.0
1349.66,1248.2
1351.21,1221.0
1352.75,1210.6
1354.29,1203.8
1355.82,1181.2
1357.36,1189.8
1358.9,1194.6
1360.43,1171.0
1361.97,1174.0
1363.5,1179.8
1365.03,1171.6
1366.57,1173.8
1368.1,1165.0
1369.63,1151.2
1371.16,1147.0
1372.68,1148.8
1374.21,1142.6
1375.74,1125.0
1377.26,1136.8
1378.78,1094.2
1380.31,1077.0
1381.83,1093.4
1383.35,1088.2
1384.87,1085.2
1386.39,1064.2
1387.91,1063.2
1389.42,1041.0
1390.94,1057.8
1392.46,1031.0
1393.97,1030.0
1395.48,1033.8
1397.0,1021.2
1398.51,1009.4
1400.02,1001.0
1401.53,1006.6
1403.04,996.0
1404.54,1007.6
1406.05,1007.2
1407.55,993.8
1409.06,1000.8
1410.56,987.2
1412.06,992.4
1413.57,977.2
1415.07,991.0
1416.57,997.6
1418.07,993.4
1419.56,987.8
1421.06,973.6
1422.56,984.2
1424.05,975.2
1425.54,952.8
1427.04,949.6
1428.53,959.6
1430.02,941.8
1431.51,960.0
1433.0,952.2
1434.49,958.8
1435.97,970.4
1437.46,991.0
1438.94,1021.2
1440.43,1020.4
1441.91,1044.0
1443.39,1043.4
1444.88,1057.8
1446.36,1088.2
1447.83,1101.0
1449.31,1123.8
1450.79,1113.8
1452.27,1125.4
1453.74,1111.8
1455.22,1118.0
1456.69,1112.0
1458.16,1133.0
1459.63,1136.2
1461.1,1130.6
1462.57,1132.4
1464.04,1093.6
1465.51,1084.4
1466.98,1056.4
1468.44,1028.8
1469.91,1007.8
1471.37,942.6
1472.83,926.0
1474.3,857.2
1475.76,829.6
1477.22,811.8
1478.67,768.0
1480.13,733.8
1481.59,683.4
1483.05,668.0
1484.5,667.0
1485.95,650.8
1487.41,621.2
1488.86,610.6
1490.31,603.2
1491.76,597.6
1493.21,585.6
1494.66,574.4
1496.11,578.8
1497.55,573.6
1499.0,564.4
1500.44,564.4
1501.88,545.8
1503.33,553.0
1504.77,561.8
1506.21,549.0
1507.65,548.2
1509.09,549.0
1510.52,533.8
1511.96,531.8
1513.4,534.8
1514.83,527.0
1516.26,539.4
1517.7,538.2
1519.13,532.0
1520.56,555.2
1521.99,516.6
1523.42,530.6
1524.85,543.0
1526.27,504.2
1527.7,522.4
1529.12,517.0
1530.55,516.0
1531.97,532.6
1533.39,514.6
1534.81,510.4
1536.23,526.4
1537.65,528.8
1539.07,529.4
1540.49,532.6
1541.9,540.0
1543.32,554.4
1544.73,546.6
1546.15,535.2
1547.56,553.4
1548.97,558.6
1550.38,557.0
1551.79,570.4
1553.2,582.4
1554.61,584.0
1556.01,603.8
1557.42,584.8
1558.82,570.0
1560.22,552.6
1561.63,554.0
1563.03,557.2
1564.43,534.8
1565.83,547.0
1567.23,551.4
1568.63,539.4
1570.02,560.4
1571.42,555.0
1572.81,553.6
1574.21,547.6
1575.6,553.0
1576.99,561.8
1578.38,541.8
1579.77,557.2
1581.16,571.8
1582.55,573.0
1583.94,591.6
1585.32,584.6
1586.71,586.0
1588.09,592.2
1589.47,590.8
1590.86,579.6
1592.24,582.8
1593.62,593.4
1595.0,618.6
1596.38,621.2
1597.75,635.0
1599.13,638.6
1600.51,642.2
1601.88,665.8
1603.25,673.0
1604.63,686.6
1606.0,684.2
1607.37,677.2
1608.74,684.4
1610.11,669.8
1611.47,700.6
1612.84,705.6
1614.21,723.0
1615.57,706.0
1616.93,725.2
1618.3,713.8
1619.66,726.6
1621.02,746.4
1622.38,722.4
1623.74,727.6
1625.1,719.0
1626.45,715.4
1627.81,717.4
1629.16,727.8
1630.52,733.4
1631.87,719.2
1633.22,746.6
1634.57,720.4
1635.92,729.2
1637.27,728.2
1638.62,743.4
1639.97,749.4
1641.32,742.2
1642.66,746.4
1644.01,743.4
1645.35,732.2
1646.69,754.4
1648.03,735.6
1649.37,755.2
1650.71,759.4
1652.05,756.6
1653.39,754.6
1654.73,752.0
1656.06,736.6
1657.4,747.6
1658.73,758.6
1660.06,739.0
1661.39,742.8
1662.72,735.8
1664.05,738.6
1665.38,751.6
1666.71,729.2
1668.04,719.2
1669.36,727.4
1670.69,703.2
1672.01,692.2
1673.34,675.4
1674.66,666.8
1675.98,649.2
1677.3,652.6
1678.62,627.4
1679.94,629.4
1681.25,624.2
1682.57,592.4
1683.88,589.8
1685.2,576.8
1686.51,544.6
1687.82,540.0
1689.14,513.6
1690.45,495.0
1691.76,477.4
1693.06,492.0
1694.37,473.2
1695.68,446.8
1696.98,448.2
1698.29,433.8
1699.59,429.0
1700.89,415.6
1702.2,409.4
1703.5,401.4
1704.8,394.4
1706.1,390.2
1707.39,379.8
1708.69,362.6
1709.99,363.4
1711.28,343.8
1712.57,356.0
1713.87,348.6
1715.16,324.0
1716.45,327.0
1717.74,332.0
1719.03,319.0
1720.32,315.0
1721.6,315.6
1722.89,297.8
1724.18,308.8
1725.46,311.4
1726.74,299.8
1728.03,292.4
1729.31,289.4
1730.59,291.4
1731.87,299.8
1733.15,271.6
1734.42,281.8
1735.7,264.4
1736.97,269.4
1738.25,274.0
1739.52,275.8
1740.79,261.8
1742.07,254.4
1743.34,252.4
1744.61,271.0
1745.88,286.4
1747.14,248.2
1748.41,260.2
1749.68,250.4
1750.94,256.4
1752.2,248.2
1753.47,261.8
1754.73,246.0
1755.99,244.2
1757.25,249.2
1758.51,247.2
1759.77,246.8
1761.02,226.4
1762.28,245.4
1763.54,222.8
1764.79,229.8
1766.04,233.0
1767.29,237.0
1768.55,208.2
1769.8,215.4
1771.05,226.4
1772.29,215.8
1773.54,215.0
1774.79,234.2
1776.03,224.0
1777.28,194.6
1778.52,202.8
1779.76,200.2
1781.01,211.4
1782.25,200.6
1783.49,223.2
1784.72,193.2
1785.96,211.4
1787.2,207.2
1788.43,202.2
1789.67,205.0
1790.9,207.8
1792.14,183.8
1793.37,188.2
1794.6,200.8
1795.83,192.0
1797.06,193.4
1798.28,191.2
1799.51,183.4
1800.74,189.2
1801.96,191.0
1803.19,197.2
1804.41,193.6
1805.63,179.4
1806.85,192.0
1808.07,181.4
1809.29,177.8
1810.51,198.2
1811.73,176.8
1812.94,179.8
1814.16,170.8
1815.37,180.0
1816.59,172.4
1817.8,190.0
1819.01,172.6
1820.22,190.6
1821.43,181.4
1822.64,169.4
1823.85,171.0
1825.05,172.2
1826.26,180.6
1827.46,150.8
1828.67,168.6
1829.87,174.4
1831.07,179.4
1832.27,175.4
1833.47,175.2
1834.67,187.6
1835.87,140.6
1837.07,161.6
1838.26,163.6
1839.46,165.6
1840.65,156.6
1841.85,171.6
1843.04,166.4
1844.23,168.6
1845.42,165.6
1846.61,164.0
1847.8,166.0
1848.98,180.6
1850.17,161.6
1851.35,158.2
1852.54,154.6
1853.72,157.4
1854.9,174.0
1856.09,175.4
1857.27,155.0
1858.45,159.6
1859.62,153.6
1860.8,161.2
1861.98,172.6
1863.15,167.6
1864.33,149.8
1865.5,144.4
1866.68,145.0
1867.85,160.8
1869.02,158.2
1870.19,147.2
1871.36,148.0
1872.52,153.8
1873.69,147.6
1874.86,154.0
1876.02,153.4
1877.19,146.4
1878.35,134.2
1879.51,161.2
1880.67,146.4
1881.83,126.4
1882.99,136.8
1884.15,155.0
1885.31,151.0
1886.46,147.6
1887.62,131.2
1888.77,136.6
1889.92,130.8
1891.08,155.0
1892.23,148.0
1893.38,130.6
