Wavenumber,Intensities
282.29,6874.0
284.39,6803.4
286.49,6796.4
288.59,6763.8
290.7,6722.6
292.79,6649.0
294.89,6643.0
296.99,6623.6
299.09,6571.8
301.18,6636.2
303.28,6562.2
305.37,6548.8
307.47,6510.8
309.56,6492.6
311.65,6515.6
313.74,6445.6
315.83,6474.2
317.92,6491.2
320.0,6483.4
322.09,6484.6
324.18,6523.0
326.26,6495.6
328.34,6504.0
330.43,6547.2
332.51,6624.0
334.59,6689.2
336.67,6747.0
338.75,6832.2
340.83,6938.4
342.9,7101.8
344.98,7219.8
347.05,7344.6
349.13,7460.4
351.2,7567.8
353.27,7527.4
355.35,7523.2
357.42,7406.4
359.49,7292.2
361.55,7170.6
363.62,6989.8
365.69,6875.2
367.75,6687.0
369.82,6658.6
371.88,6589.0
373.95,6479.6
376.01,6491.0
378.07,6445.6
380.13,6474.4
382.19,6446.4
384.25,6490.2
386.31,6490.2
388.36,6509.4
390.42,6544.2
392.47,6526.8
394.53,6545.8
396.58,6570.6
398.63,6585.6
400.68,6656.4
402.73,6769.8
404.78,6756.6
406.83,6766.0
408.87,6823.2
410.92,6804.4
412.97,6851.0
415.01,6910.0
417.05,6949.0
419.1,7049.8
421.14,7071.2
423.18,7110.8
425.22,7147.8
427.25,7166.6
429.29,7166.4
431.33,7272.6
433.36,7270.4
435.4,7297.4
437.43,7277.0
439.47,7284.2
441.5,7239.8
443.53,7262.0
445.56,7181.4
447.59,7166.2
449.62,7139.0
451.64,7111.2
453.67,7079.6
455.7,7071.4
457.72,6957.4
459.74,6882.8
461.77,6851.8
463.79,6829.0
465.81,6795.2
467.83,6759.8
469.85,6690.2
471.86,6661.4
473.88,6570.0
475.9,6547.4
477.91,6473.0
479.93,6472.0
481.94,6362.6
483.95,6327.2
485.96,6267.2
487.97,6241.8
489.98,6151.4
491.99,6133.6
494.0,6005.8
496.0,5928.6
498.01,5860.6
500.01,5777.4
502.02,5669.2
504.02,5638.4
506.02,5547.0
508.02,5544.0
510.02,5494.8
512.02,5450.4
514.02,5438.8
516.01,5363.8
518.01,5390.8
520.01,5303.4
522.0,5210.8
523.99,5189.8
525.99,5124.4
527.98,5078.6
529.97,5015.6
531.96,5044.4
533.94,5028.0
535.93,5011.8
537.92,4984.0
539.9,4905.6
541.89,4874.6
543.87,4812.4
545.85,4769.6
547.84,4687.6
549.82,4670.2
551.8,4654.2
553.78,4641.4
555.75,4611.6
557.73,4611.2
559.71,4603.2
561.68,4620.8
563.66,4598.2
565.63,4598.8
567.6,4563.6
569.57,4555.8
571.54,4563.2
573.51,4529.8
575.48,4490.6
577.45,4448.6
579.41,4465.2
581.38,4455.8
583.34,4420.6
585.31,4402.2
587.27,4408.4
589.23,4346.6
591.19,4371.6
593.15,4377.8
595.11,4374.6
597.07,4390.0
599.03,4372.8
600.98,4311.0
602.94,4306.4
604.89,4264.8
606.84,4267.4
608.8,4244.0
610.75,4202.0
612.7,4152.4
614.65,4152.8
616.6,4152.6
618.54,4144.2
620.49,4188.2
622.43,4172.8
624.38,4109.6
626.32,4074.4
628.27,4059.8
630.21,4029.2
632.15,4027.0
634.09,4007.4
636.03,3991.2
637.96,4027.2
639.9,4078.8
641.84,4122.0
643.77,4211.0
645.71,4179.4
647.64,4163.0
649.57,4169.2
651.5,4135.4
653.43,4155.8
655.36,4075.2
657.29,4037.0
659.22,4004.6
661.14,3943.4
663.07,3913.6
664.99,3915.4
666.92,3872.2
668.84,3833.4
670.76,3843.0
672.68,3850.0
674.6,3791.6
676.52,3790.0
678.44,3749.8
680.35,3769.4
682.27,3745.4
684.19,3707.2
686.1,3736.0
688.01,3693.2
689.92,3714.8
691.83,3708.2
693.74,3702.8
695.65,3709.0
697.56,3738.0
699.47,3783.8
701.38,3798.0
703.28,3826.4
705.19,3771.4
707.09,3838.6
708.99,3816.8
710.89,3795.6
712.79,3793.0
714.69,3742.8
716.59,3730.8
718.49,3693.0
720.39,3664.8
722.28,3673.8
724.18,3607.8
726.07,3594.8
727.96,3606.4
729.85,3549.2
731.74,3518.8
733.63,3549.8
735.52,3523.4
737.41,3541.0
739.3,3536.4
741.18,3524.8
743.07,3521.8
744.95,3557.4
746.84,3527.6
748.72,3516.4
750.6,3537.0
752.48,3528.0
754.36,3525.2
756.24,3552.4
758.12,3578.2
759.99,3589.2
761.87,3537.2
763.74,3536.0
765.62,3562.2
767.49,3524.2
769.36,3503.2
771.23,3486.2
773.1,3524.2
774.97,3511.8
776.84,3497.8
778.7,3512.2
780.57,3496.0
782.44,3493.0
784.3,3526.6
786.16,3486.4
788.02,3484.0
789.89,3486.6
791.75,3446.0
793.6,3456.8
795.46,3451.4
797.32,3405.6
799.18,3436.0
801.03,3410.6
802.89,3437.0
804.74,3411.6
806.59,3398.0
808.44,3406.6
810.29,3402.0
812.14,3372.8
813.99,3389.6
815.84,3382.6
817.69,3405.8
819.53,3417.8
821.38,3418.0
823.22,3487.2
825.06,3509.0
826.9,3529.6
828.75,3557.4
830.59,3566.6
832.42,3571.4
834.26,3579.0
836.1,3556.2
837.93,3603.6
839.77,3607.6
841.6,3656.2
843.44,3676.0
845.27,3725.4
847.1,3780.8
848.93,3855.4
850.76,3873.6
852.59,3923.6
854.42,3912.4
856.24,3926.0
858.07,3931.4
859.89,3879.0
861.72,3875.8
863.54,3837.2
865.36,3838.0
867.18,3825.6
869.0,3793.0
870.82,3799.6
872.64,3898.8
874.45,3925.2
876.27,4008.0
878.08,4053.0
879.9,4058.4
881.71,4005.6
883.52,3979.2
885.33,3948.8
887.14,3875.8
888.95,3815.2
890.76,3765.6
892.57,3709.2
894.37,3701.2
896.18,3641.0
897.98,3596.4
899.79,3567.4
901.59,3516.8
903.39,3478.0
905.19,3407.0
906.99,3402.8
908.79,3347.4
910.58,3318.4
912.38,3300.2
914.18,3287.8
915.97,3277.2
917.76,3268.2
919.56,3245.6
921.35,3222.0
923.14,3226.6
924.93,3207.8
926.72,3175.8
928.51,3172.0
930.29,3130.4
932.08,3146.2
933.86,3156.2
935.65,3167.6
937.43,3178.0
939.21,3197.2
940.99,3206.8
942.77,3257.6
944.55,3274.6
946.33,3335.8
948.11,3374.0
949.88,3331.4
951.66,3286.6
953.43,3298.2
955.21,3266.0
956.98,3239.4
958.75,3183.4
960.52,3147.8
962.29,3085.4
964.06,3011.4
965.82,2992.6
967.59,2976.8
969.36,2947.0
971.12,2928.0
972.88,2937.6
974.65,2956.2
976.41,2960.2
978.17,2986.6
979.93,3014.0
981.69,3039.4
983.45,3047.4
985.2,3070.0
986.96,3053.4
988.71,3077.2
990.47,3125.4
992.22,3130.2
993.97,3085.4
995.72,3133.0
997.47,3191.8
999.22,3323.0
1000.97,3486.8
1002.72,3609.6
1004.46,3542.4
1006.21,3396.0
1007.95,3282.2
1009.7,3217.4
1011.44,3181.0
1013.18,3179.2
1014.92,3201.4
1016.66,3199.8
1018.4,3232.4
1020.13,3267.8
1021.87,3286.4
1023.61,3258.6
1025.34,3257.6
1027.07,3284.4
1028.81,3284.8
1030.54,3335.2
1032.27,3360.8
1034.0,3347.2
1035.73,3375.6
1037.46,3379.4
1039.18,3370.8
1040.91,3376.2
1042.63,3431.6
1044.36,3454.4
1046.08,3441.2
1047.8,3476.6
1049.52,3475.8
1051.24,3487.8
1052.96,3465.0
1054.68,3501.6
1056.4,3526.4
1058.11,3541.4
1059.83,3555.4
1061.54,3574.4
1063.26,3553.0
1064.97,3593.4
1066.68,3636.6
1068.39,3646.4
1070.1,3688.4
1071.81,3758.8
1073.51,3857.0
1075.22,3921.2
1076.93,3958.2
1078.63,4023.2
1080.33,4054.4
1082.04,4096.2
1083.74,4075.4
1085.44,4035.2
1087.14,3965.8
1088.84,3915.2
1090.53,3829.2
1092.23,3739.0
1093.93,3701.0
1095.62,3651.4
1097.32,3588.8
1099.01,3556.0
1100.7,3537.2
1102.39,3528.6
1104.08,3468.2
1105.77,3475.0
1107.46,3500.8
1109.15,3511.2
1110.83,3551.6
1112.52,3641.6
1114.2,3680.0
1115.88,3791.4
1117.57,3844.2
1119.25,3865.6
1120.93,3904.4
1122.61,3829.6
1124.28,3815.6
1125.96,3759.0
1127.64,3645.4
1129.31,3539.4
1130.99,3403.6
1132.66,3307.0
1134.33,3190.0
1136.01,3138.4
1137.68,3018.4
1139.35,2981.4
1141.01,2987.4
1142.68,2989.0
1144.35,2940.6
1146.01,2973.0
1147.68,2942.4
1149.34,2992.0
1151.01,2993.4
1152.67,2982.2
1154.33,2948.8
1155.99,2922.2
1157.65,2860.6
1159.3,2813.6
1160.96,2777.0
1162.62,2685.2
1164.27,2642.6
1165.93,2583.0
1167.58,2522.6
1169.23,2510.0
1170.88,2461.8
1172.53,2438.4
1174.18,2414.0
1175.83,2358.6
1177.48,2309.2
1179.12,2289.6
1180.77,2273.2
1182.41,2234.8
1184.06,2213.8
1185.7,2187.8
1187.34,2190.8
1188.98,2194.8
1190.62,2193.6
1192.26,2210.6
1193.9,2248.2
1195.53,2261.8
1197.17,2256.2
1198.8,2281.4
1200.44,2302.4
1202.07,2317.0
1203.7,2364.0
1205.33,2360.2
1206.96,2379.0
1208.59,2408.8
1210.22,2369.0
1211.85,2336.2
1213.47,2317.8
1215.1,2310.8
1216.72,2326.6
1218.34,2311.0
1219.96,2329.2
1221.59,2345.6
1223.21,2340.4
1224.83,2391.4
1226.44,2401.8
1228.06,2435.4
1229.68,2481.2
1231.29,2527.4
1232.91,2532.8
1234.52,2589.4
1236.13,2607.6
1237.74,2639.6
1239.35,2684.4
1240.96,2690.4
1242.57,2718.6
1244.18,2769.0
1245.78,2776.0
1247.39,2843.8
1248.99,2851.2
1250.6,2873.4
1252.2,2894.8
1253.8,2922.2
1255.4,2938.0
1257.0,2964.2
1258.6,2965.2
1260.2,3000.2
1261.8,3014.0
1263.39,2987.4
1264.99,2984.4
1266.58,2922.4
1268.17,2891.6
1269.77,2862.8
1271.36,2828.8
1272.95,2749.4
1274.54,2716.6
1276.12,2665.6
1277.71,2608.4
1279.3,2570.4
1280.88,2546.0
1282.47,2489.0
1284.05,2466.0
1285.63,2461.2
1287.21,2452.0
1288.79,2433.6
1290.37,2381.2
1291.95,2423.8
1293.53,2426.6
1295.1,2399.0
1296.68,2414.2
1298.25,2388.4
1299.83,2425.4
1301.4,2458.2
1302.97,2475.0
1304.54,2490.6
1306.11,2505.8
1307.68,2535.8
1309.25,2560.8
1310.81,2565.4
1312.38,2578.8
1313.94,2562.2
1315.51,2618.4
1317.07,2605.4
1318.63,2653.8
1320.19,2614.8
1321.75,2625.8
1323.31,2608.2
1324.87,2603.8
1326.43,2615.2
1327.98,2611.4
1329.54,2602.2
1331.09,2601.8
1332.64,2613.6
1334.2,2631.2
1335.75,2632.6
1337.3,2637.4
1338.85,2641.2
1340.4,2622.2
1341.94,2581.6
1343.49,2588.8
1345.03,2558.4
1346.58,2539.2
1348.12,2500.6
1349.66,2459.6
1351.21,2432.0
1352.75,2421.8
1354.29,2372.0
1355.82,2394.6
1357.36,2335.6
1358.9,2341.2
1360.43,2335.2
1361.97,2349.6
1363.5,2328.0
1365.03,2317.4
1366.57,2294.8
1368.1,2284.2
1369.63,2312.8
1371.16,2275.8
1372.68,2267.2
1374.21,2245.4
1375.74,2207.8
1377.26,2240.8
1378.78,2188.6
1380.31,2185.4
1381.83,2175.0
1383.35,2178.2
1384.87,2157.8
1386.39,2133.8
1387.91,2123.2
1389.42,2091.4
1390.94,2070.2
1392.46,2062.0
1393.97,2070.0
1395.48,2039.8
1397.0,2059.0
1398.51,2049.6
1400.02,2023.8
1401.53,2040.0
1403.04,1990.2
1404.54,1988.8
1406.05,1976.8
1407.55,1975.8
1409.06,1973.4
1410.56,1984.2
1412.06,1964.4
1413.57,1955.6
1415.07,1942.6
1416.57,1955.4
1418.07,1932.6
1419.56,1938.8
1421.06,1963.6
1422.56,1951.4
1424.05,1939.6
1425.54,1932.6
1427.04,1922.8
1428.53,1901.4
1430.02,1889.4
1431.51,1876.6
1433.0,1890.6
1434.49,1931.2
1435.97,1944.8
1437.46,1987.6
1438.94,1985.8
1440.43,2011.8
1441.91,2050.8
1443.39,2103.8
1444.88,2119.2
1446.36,2181.8
1447.83,2202.4
1449.31,2212.0
1450.79,2231.2
1452.27,2238.8
1453.74,2217.4
1455.22,2251.4
1456.69,2224.0
1458.16,2250.6
1459.63,2240.8
1461.1,2223.4
1462.57,2225.6
1464.04,2194.2
1465.51,2156.6
1466.98,2113.2
1468.44,2043.4
1469.91,1979.6
1471.37,1859.6
1472.83,1783.6
1474.3,1703.8
1475.76,1642.6
1477.22,1572.4
1478.67,1493.8
1480.13,1428.6
1481.59,1375.4
1483.05,1349.4
1484.5,1313.0
1485.95,1246.2
1487.41,1243.0
1488.86,1215.6
1490.31,1219.6
1491.76,1193.0
1493.21,1200.6
1494.66,1155.0
1496.11,1157.4
1497.55,1155.2
1499.0,1153.0
1500.44,1148.0
1501.88,1101.8
1503.33,1122.0
1504.77,1099.6
1506.21,1079.6
1507.65,1104.4
1509.09,1106.6
1510.52,1060.2
1511.96,1069.8
1513.4,1073.8
1514.83,1069.2
1516.26,1069.2
1517.7,1084.2
1519.13,1066.4
1520.56,1070.8
1521.99,1055.6
1523.42,1055.8
1524.85,1065.6
1526.27,1028.0
1527.7,1037.8
1529.12,1039.4
1530.55,1048.0
1531.97,1061.8
1533.39,1037.6
1534.81,1041.2
1536.23,1044.4
1537.65,1052.6
1539.07,1052.4
1540.49,1062.6
1541.9,1072.4
1543.32,1072.2
1544.73,1098.0
1546.15,1080.0
1547.56,1095.2
1548.97,1134.6
1550.38,1094.2
1551.79,1145.4
1553.2,1179.4
1554.61,1198.4
1556.01,1215.2
1557.42,1186.2
1558.82,1146.8
1560.22,1098.4
1561.63,1114.0
1563.03,1088.0
1564.43,1089.2
1565.83,1074.4
1567.23,1073.8
1568.63,1094.4
1570.02,1065.8
1571.42,1092.2
1572.81,1089.2
1574.21,1112.4
1575.6,1098.4
1576.99,1129.0
1578.38,1124.2
1579.77,1141.6
1581.16,1144.8
1582.55,1129.4
1583.94,1177.2
1585.32,1174.4
1586.71,1180.4
1588.09,1183.2
1589.47,1163.8
1590.86,1174.6
1592.24,1194.6
1593.62,1216.2
1595.0,1232.4
1596.38,1205.8
1597.75,1241.6
1599.13,1267.4
1600.51,1262.8
1601.88,1322.8
1603.25,1335.4
1604.63,1338.8
1606.0,1365.2
1607.37,1356.0
1608.74,1363.2
1610.11,1389.8
1611.47,1394.2
1612.84,1376.8
1614.21,1445.6
1615.57,1437.0
1616.93,1427.6
1618.3,1420.0
1619.66,1421.4
1621.02,1410.2
1622.38,1413.8
1623.74,1408.6
1625.1,1421.4
1626.45,1400.6
1627.81,1419.2
1629.16,1432.0
1630.52,1445.0
1631.87,1436.8
1633.22,1422.8
1634.57,1449.6
1635.92,1464.8
1637.27,1464.0
1638.62,1463.2
1639.97,1473.0
1641.32,1470.0
1642.66,1467.2
1644.01,1458.4
1645.35,1482.4
1646.69,1482.4
1648.03,1496.0
1649.37,1492.2
1650.71,1472.4
1652.05,1491.4
1653.39,1492.8
1654.73,1480.2
1656.06,1509.6
1657.4,1507.4
1658.73,1494.4
1660.06,1496.4
1661.39,1477.0
1662.72,1450.6
1664.05,1462.4
1665.38,1445.0
1666.71,1453.4
1668.04,1410.2
1669.36,1407.0
1670.69,1415.8
1672.01,1386.8
1673.34,1366.2
1674.66,1376.0
1675.98,1301.6
1677.3,1287.8
1678.62,1252.2
1679.94,1233.2
1681.25,1221.2
1682.57,1178.6
1683.88,1150.2
1685.2,1134.8
1686.51,1113.2
1687.82,1046.2
1689.14,1023.0
1690.45,1018.4
1691.76,972.8
1693.06,942.4
1694.37,922.6
1695.68,911.8
1696.98,886.6
1698.29,858.0
1699.59,836.2
1700.89,788.8
1702.2,827.8
1703.5,795.0
1704.8,766.4
1706.1,735.2
1707.39,750.2
1708.69,735.8
1709.99,701.4
1711.28,702.0
1712.57,686.8
1713.87,678.6
1715.16,662.6
1716.45,652.4
1717.74,651.0
1719.03,654.6
1720.32,650.2
1721.6,637.6
1722.89,596.8
1724.18,612.6
1725.46,592.2
1726.74,586.2
1728.03,584.8
1729.31,574.4
1730.59,574.8
1731.87,566.4
1733.15,554.2
1734.42,545.2
1735.7,545.4
1736.97,529.2
1738.25,525.4
1739.52,521.6
1740.79,537.8
1742.07,519.4
1743.34,508.8
1744.61,538.6
1745.88,504.2
1747.14,492.2
1748.41,496.0
1749.68,492.8
1750.94,502.2
1752.2,457.4
1753.47,476.2
1754.73,485.6
1755.99,485.4
1757.25,481.4
1758.51,466.4
1759.77,458.0
1761.02,454.2
1762.28,460.2
1763.54,436.2
1764.79,468.0
1766.04,464.8
1767.29,457.0
1768.55,428.6
1769.8,429.8
1771.05,418.4
1772.29,416.0
1773.54,438.0
1774.79,426.6
1776.03,403.8
1777.28,415.2
1778.52,426.0
1779.76,413.6
1781.01,398.8
1782.25,379.8
1783.49,418.0
1784.72,392.4
1785.96,433.6
1787.2,393.6
1788.43,405.0
1789.67,395.0
1790.9,402.6
1792.14,396.4
1793.37,379.0
1794.6,390.2
1795.83,383.6
1797.06,390.6
1798.28,398.6
1799.51,390.6
1800.74,399.4
1801.96,383.6
1803.19,378.0
1804.41,389.4
1805.63,350.8
1806.85,378.8
1808.07,379.4
1809.29,356.8
1810.51,369.0
1811.73,361.4
1812.94,349.2
1814.16,363.8
1815.37,357.0
1816.59,370.2
1817.8,350.0
1819.01,347.0
1820.22,317.8
1821.43,325.4
1822.64,344.8
1823.85,348.0
1825.05,316.6
1826.26,354.6
1827.46,342.6
1828.67,344.2
1829.87,344.8
1831.07,327.4
1832.27,364.0
1833.47,324.0
1834.67,323.4
1835.87,343.4
1837.07,349.0
1838.26,327.8
1839.46,348.4
1840.65,309.2
1841.85,341.8
1843.04,331.0
1844.23,312.0
1845.42,341.0
1846.61,339.6
1847.8,312.0
1848.98,316.0
1850.17,316.6
1851.35,320.4
1852.54,310.0
1853.72,340.2
1854.9,308.8
1856.09,298.4
1857.27,292.4
1858.45,329.0
1859.62,310.6
1860.8,300.0
1861.98,285.8
1863.15,314.4
1864.33,299.4
1865.5,295.6
1866.68,311.4
1867.85,303.2
1869.02,302.4
1870.19,316.0
1871.36,287.8
1872.52,283.2
1873.69,296.8
1874.86,290.2
1876.02,290.2
1877.19,294.6
1878.35,259.8
1879.51,287.8
1880.67,296.8
1881.83,290.0
1882.99,278.8
1884.15,309.0
1885.31,295.4
1886.46,285.6
1887.62,279.2
1888.77,280.6
1889.92,300.6
1891.08,292.8
1892.23,286.4
1893.38,279.4
