Wavenumber,Intensities
282.29,3102.8
284.39,3120.2
286.49,3200.8
288.59,3067.2
290.7,3192.4
292.79,3113.6
294.89,3208.4
296.99,2944.8
299.09,2902.4
301.18,3130.2
303.28,2976.8
305.37,2993.4
307.47,2855.2
309.56,2900.0
311.65,3022.4
313.74,3144.6
315.83,3030.6
317.92,2955.4
320.0,2932.2
322.09,2961.4
324.18,3089.2
326.26,2837.0
328.34,3094.2
330.43,2936.6
332.51,3085.8
334.59,3244.8
336.67,3199.2
338.75,3315.8
340.83,3370.0
342.9,3428.6
344.98,3599.4
347.05,3712.4
349.13,3722.4
351.2,3718.4
353.27,3707.4
355.35,3743.4
357.42,3691.4
359.49,3587.4
361.55,3266.4
363.62,3387.6
365.69,3142.2
367.75,3161.4
369.82,2980.2
371.88,2960.8
373.95,2783.0
376.01,2867.4
378.07,2798.2
380.13,2846.0
382.19,2951.0
384.25,3019.2
386.31,2877.2
388.36,2724.6
390.42,3145.2
392.47,2774.6
394.53,2981.2
396.58,2892.8
398.63,2877.4
400.68,3170.6
402.73,3252.8
404.78,3202.8
406.83,3118.8
408.87,3151.6
410.92,3212.8
412.97,3122.4
415.01,3247.6
417.05,3220.8
419.1,3413.8
421.14,3292.0
423.18,3367.0
425.22,3399.0
427.25,3344.4
429.29,3443.4
431.33,3500.0
433.36,3440.4
435.4,3334.6
437.43,3466.4
439.47,3568.0
441.5,3465.8
443.53,3674.4
445.56,3472.4
447.59,3315.8
449.62,3542.6
451.64,3376.8
453.67,3347.4
455.7,3194.4
457.72,3195.6
459.74,3111.4
461.77,3370.8
463.79,3039.6
465.81,2944.8
467.83,3039.0
469.85,3036.8
471.86,3230.4
473.88,2897.2
475.9,2792.2
477.91,2890.0
479.93,2921.4
481.94,2891.6
483.95,2786.0
485.96,2778.8
487.97,2689.2
489.98,2813.8
491.99,2755.0
494.0,2452.2
496.0,2422.6
498.01,2588.0
500.01,2631.8
502.02,2401.8
504.02,2415.4
506.02,2490.6
508.02,2516.8
510.02,2346.2
512.02,2325.8
514.02,2411.2
516.01,2100.2
518.01,2140.8
520.01,2372.6
522.0,2093.4
523.99,2184.4
525.99,2211.2
527.98,2162.0
529.97,2074.0
531.96,2162.0
533.94,2204.2
535.93,2148.8
537.92,2184.0
539.9,2161.8
541.89,1976.8
543.87,2079.2
545.85,1972.6
547.84,1929.8
549.82,2080.6
551.8,1896.2
553.78,1841.6
555.75,1890.4
557.73,1905.4
559.71,1916.4
561.68,1798.2
563.66,1831.8
565.63,1714.4
567.6,1997.0
569.57,2043.4
571.54,1832.2
573.51,1813.4
575.48,1899.2
577.45,1790.0
579.41,1753.6
581.38,1789.8
583.34,1896.4
585.31,1776.0
587.27,1804.2
589.23,1730.6
591.19,1677.8
593.15,1743.8
595.11,1701.2
597.07,1778.4
599.03,1654.6
600.98,1663.8
602.94,1348.8
604.89,1641.2
606.84,1636.2
608.8,1622.8
610.75,1625.0
612.7,1486.0
614.65,1605.6
616.6,1640.2
618.54,1656.2
620.49,1547.6
622.43,1571.2
624.38,1635.4
626.32,1729.0
628.27,1618.2
630.21,1594.2
632.15,1685.2
634.09,1514.4
636.03,1486.6
637.96,1507.4
639.9,1453.6
641.84,1604.2
643.77,1657.8
645.71,1725.0
647.64,1603.6
649.57,1723.8
651.5,1572.6
653.43,1582.8
655.36,1448.6
657.29,1437.4
659.22,1475.0
661.14,1356.6
663.07,1562.8
664.99,1466.8
666.92,1482.6
668.84,1438.0
670.76,1610.4
672.68,1503.0
674.6,1471.0
676.52,1408.6
678.44,1442.0
680.35,1413.2
682.27,1464.4
684.19,1508.2
686.1,1236.4
688.01,1332.0
689.92,1335.0
691.83,1424.0
693.74,1366.8
695.65,1300.6
697.56,1513.4
699.47,1382.8
701.38,1283.2
703.28,1500.6
705.19,1327.8
707.09,1154.2
708.99,1478.4
710.89,1233.2
712.79,1411.8
714.69,1455.8
716.59,1436.6
718.49,1493.6
720.39,1295.8
722.28,1370.6
724.18,1246.4
726.07,1217.0
727.96,1326.2
729.85,1223.6
731.74,1304.4
733.63,1385.2
735.52,1394.4
737.41,1252.8
739.3,1272.0
741.18,1152.6
743.07,1240.0
744.95,1424.4
746.84,1166.8
748.72,1288.8
750.6,1408.8
752.48,1382.2
754.36,1302.8
756.24,1218.6
758.12,1276.6
759.99,1353.2
761.87,1326.2
763.74,1136.2
765.62,1228.8
767.49,1130.8
769.36,1354.4
771.23,1015.0
773.1,1318.2
774.97,1334.2
776.84,1204.4
778.7,1389.4
780.57,1271.4
782.44,1387.2
784.3,1153.4
786.16,1170.4
788.02,1320.4
789.89,1175.2
791.75,1327.4
793.6,1222.6
795.46,1226.4
797.32,1214.4
799.18,1207.2
801.03,1214.8
802.89,1227.2
804.74,1091.8
806.59,1214.2
808.44,1058.6
810.29,1156.0
812.14,1262.8
813.99,1199.8
815.84,1270.4
817.69,1183.8
819.53,1214.2
821.38,1111.0
823.22,1064.8
825.06,1266.8
826.9,1340.6
828.75,1397.8
830.59,1334.8
832.42,1405.4
834.26,1400.8
836.1,1314.8
837.93,1234.6
839.77,1361.2
841.6,1552.2
843.44,1500.6
845.27,1457.8
847.1,1473.2
848.93,1506.0
850.76,1511.0
852.59,1648.8
854.42,1581.4
856.24,1608.0
858.07,1785.2
859.89,1669.0
861.72,1738.4
863.54,1696.4
865.36,1587.4
867.18,1767.6
869.0,1553.0
870.82,1636.8
872.64,1674.0
874.45,1712.2
876.27,1803.8
878.08,1803.6
879.9,1764.0
881.71,1884.4
883.52,1889.8
885.33,1809.8
887.14,1808.8
888.95,1632.8
890.76,1740.4
892.57,1621.2
894.37,1556.2
896.18,1605.4
897.98,1411.2
899.79,1309.0
901.59,1450.2
903.39,1291.6
905.19,1332.6
906.99,1505.0
908.79,1356.8
910.58,1338.0
912.38,1354.8
914.18,724.4
915.97,1268.8
917.76,1314.6
919.56,1308.6
921.35,1382.8
923.14,1373.6
924.93,1330.6
926.72,1204.4
928.51,1185.4
930.29,1302.8
932.08,1014.6
933.86,1228.0
935.65,1307.0
937.43,1247.8
939.21,1427.0
940.99,1261.4
942.77,1308.4
944.55,1522.6
946.33,1378.0
948.11,1199.0
949.88,1302.2
951.66,1467.0
953.43,1292.0
955.21,1294.4
956.98,1262.6
958.75,1249.8
960.52,1329.0
962.29,926.4
964.06,1265.8
965.82,1168.6
967.59,1214.4
969.36,1293.0
971.12,972.2
972.88,1168.6
974.65,1123.6
976.41,1142.8
978.17,1291.8
979.93,1221.2
981.69,1121.6
983.45,1212.0
985.2,1152.8
986.96,1210.4
988.71,1134.4
990.47,1272.8
992.22,1275.2
993.97,1247.4
995.72,1272.6
997.47,1323.6
999.22,1312.6
1000.97,1483.6
1002.72,1505.8
1004.46,1461.0
1006.21,1701.4
1007.95,1381.8
1009.7,1327.4
1011.44,1275.6
1013.18,1319.0
1014.92,1287.2
1016.66,1368.4
1018.4,1356.4
1020.13,1258.0
1021.87,1389.6
1023.61,1177.2
1025.34,1287.4
1027.07,1385.0
1028.81,1381.2
1030.54,1399.6
1032.27,1604.6
1034.0,1306.8
1035.73,1481.0
1037.46,1516.4
1039.18,1295.6
1040.91,1464.6
1042.63,1544.4
1044.36,1380.4
1046.08,1489.0
1047.8,1589.4
1049.52,1509.2
1051.24,1475.8
1052.96,1526.4
1054.68,1529.4
1056.4,1638.2
1058.11,1576.2
1059.83,1472.2
1061.54,1642.4
1063.26,1322.2
1064.97,1646.0
1066.68,1466.4
1068.39,1702.0
1070.1,1738.0
1071.81,1747.4
1073.51,1894.8
1075.22,1910.6
1076.93,1995.4
1078.63,1883.2
1080.33,1819.6
1082.04,1983.4
1083.74,2001.0
1085.44,2006.4
1087.14,1879.6
1088.84,1784.8
1090.53,1793.0
1092.23,1776.8
1093.93,1832.2
1095.62,1745.2
1097.32,1644.0
1099.01,1517.8
1100.7,1641.0
1102.39,1581.6
1104.08,1518.2
1105.77,1458.2
1107.46,1567.2
1109.15,1614.4
1110.83,1614.2
1112.52,1658.8
1114.2,1610.4
1115.88,1700.4
1117.57,1797.8
1119.25,1960.8
1120.93,1868.0
1122.61,1807.4
1124.28,1666.8
1125.96,1790.6
1127.64,1686.6
1129.31,1544.6
1130.99,1527.0
1132.66,1503.8
1134.33,1435.0
1136.01,1333.8
1137.68,1348.0
1139.35,1011.4
1141.01,796.2
1142.68,1250.2
1144.35,1162.6
1146.01,1203.0
1147.68,1058.0
1149.34,1104.6
1151.01,1148.2
1152.67,1332.0
1154.33,1086.8
1155.99,962.2
1157.65,1177.0
1159.3,1000.4
1160.96,1031.8
1162.62,969.0
1164.27,877.8
1165.93,840.8
1167.58,815.6
1169.23,770.2
1170.88,944.8
1172.53,723.8
1174.18,707.6
1175.83,758.2
1177.48,697.2
1179.12,774.6
1180.77,833.4
1182.41,790.8
1184.06,572.8
1185.7,558.0
1187.34,688.0
1188.98,576.6
1190.62,554.2
1192.26,554.6
1193.9,638.4
1195.53,742.0
1197.17,677.2
1198.8,769.0
1200.44,584.6
1202.07,675.8
1203.7,685.6
1205.33,644.4
1206.96,807.8
1208.59,707.6
1210.22,744.2
1211.85,780.0
1213.47,885.4
1215.1,721.0
1216.72,683.4
1218.34,759.2
1219.96,779.8
1221.59,714.0
1223.21,681.2
1224.83,725.0
1226.44,988.8
1228.06,848.2
1229.68,886.2
1231.29,850.2
1232.91,929.8
1234.52,823.8
1236.13,903.4
1237.74,1039.2
1239.35,1123.6
1240.96,979.4
1242.57,1163.4
1244.18,1082.0
1245.78,1049.4
1247.39,1054.4
1248.99,1212.6
1250.6,1170.4
1252.2,1101.2
1253.8,1167.8
1255.4,1168.4
1257.0,1249.4
1258.6,1055.4
1260.2,1189.8
1261.8,1264.4
1263.39,1301.0
1264.99,1327.4
1266.58,1256.8
1268.17,1187.0
1269.77,1068.2
1271.36,1119.2
1272.95,1030.4
1274.54,947.0
1276.12,1006.4
1277.71,1076.6
1279.3,980.4
1280.88,887.8
1282.47,890.6
1284.05,780.0
1285.63,959.6
1287.21,848.6
1288.79,849.6
1290.37,805.8
1291.95,746.4
1293.53,903.6
1295.1,768.4
1296.68,902.4
1298.25,807.0
1299.83,703.8
1301.4,898.0
1302.97,673.8
1304.54,969.2
1306.11,848.2
1307.68,882.4
1309.25,1093.8
1310.81,746.6
1312.38,1000.0
1313.94,843.0
1315.51,1128.8
1317.07,1017.6
1318.63,874.0
1320.19,902.8
1321.75,925.4
1323.31,930.8
1324.87,930.6
1326.43,1025.4
1327.98,931.8
1329.54,1006.6
1331.09,809.8
1332.64,884.6
1334.2,959.8
1335.75,930.2
1337.3,1011.6
1338.85,932.0
1340.4,986.6
1341.94,1030.6
1343.49,949.0
1345.03,974.0
1346.58,1057.4
1348.12,901.2
1349.66,1090.0
1351.21,766.6
1352.75,908.2
1354.29,824.2
1355.82,931.0
1357.36,786.4
1358.9,740.2
1360.43,807.4
1361.97,683.0
1363.5,802.6
1365.03,794.4
1366.57,660.0
1368.1,684.2
1369.63,865.8
1371.16,752.4
1372.68,758.2
1374.21,761.4
1375.74,872.6
1377.26,672.0
1378.78,746.4
1380.31,590.0
1381.83,610.6
1383.35,454.0
1384.87,569.8
1386.39,661.0
1387.91,530.2
1389.42,609.0
1390.94,606.6
1392.46,585.4
1393.97,674.6
1395.48,667.6
1397.0,505.8
1398.51,495.6
1400.02,562.0
1401.53,654.6
1403.04,374.6
1404.54,647.6
1406.05,627.4
1407.55,534.6
1409.06,511.2
1410.56,597.6
1412.06,535.2
1413.57,564.4
1415.07,689.0
1416.57,604.6
1418.07,451.4
1419.56,448.8
1421.06,481.6
1422.56,508.2
1424.05,547.6
1425.54,495.8
1427.04,472.4
1428.53,622.8
1430.02,306.2
1431.51,425.4
1433.0,468.6
1434.49,511.8
1435.97,472.8
1437.46,536.6
1438.94,577.8
1440.43,511.8
1441.91,635.4
1443.39,704.6
1444.88,709.2
1446.36,729.6
1447.83,700.2
1449.31,812.4
1450.79,756.0
1452.27,549.0
1453.74,812.6
1455.22,608.8
1456.69,846.6
1458.16,765.2
1459.63,842.8
1461.1,748.6
1462.57,722.2
1464.04,565.4
1465.51,596.4
1466.98,741.8
1468.44,598.4
1469.91,442.0
1471.37,532.4
1472.83,419.4
1474.3,282.6
1475.76,284.8
1477.22,98.6
1478.67,229.2
1480.13,154.8
1481.59,97.0
1483.05,96.4
1484.5,-37.0
1485.95,18.0
1487.41,6.8
1488.86,-222.4
1490.31,73.6
1491.76,-39.6
1493.21,-149.6
1494.66,34.6
1496.11,54.0
1497.55,-20.6
1499.0,52.6
1500.44,112.0
1501.88,113.0
1503.33,-12.8
1504.77,-163.4
1506.21,-126.6
1507.65,-176.0
1509.09,-55.4
1510.52,-17.2
1511.96,-129.4
1513.4,-150.2
1514.83,-137.0
1516.26,-199.8
1517.7,-159.0
1519.13,-57.6
1520.56,-96.4
1521.99,-87.2
1523.42,-167.0
1524.85,-125.6
1526.27,-293.0
1527.7,-81.0
1529.12,-47.2
1530.55,-218.0
1531.97,-184.2
1533.39,-228.6
1534.81,-58.2
1536.23,-47.8
1537.65,-182.2
1539.07,-113.0
1540.49,-62.6
1541.9,-99.8
1543.32,-277.0
1544.73,-113.4
1546.15,-102.4
1547.56,-59.8
1548.97,-100.4
1550.38,-144.2
1551.79,-147.2
1553.2,-9.0
1554.61,-82.2
1556.01,24.2
1557.42,-60.6
1558.82,-16.8
1560.22,-98.8
1561.63,-42.0
1563.03,-125.0
1564.43,-73.0
1565.83,-78.4
1567.23,-289.2
1568.63,28.8
1570.02,-144.6
1571.42,-170.8
1572.81,-128.2
1574.21,-174.6
1575.6,-306.2
1576.99,-234.0
1578.38,-166.4
1579.77,-95.2
1581.16,-268.2
1582.55,-310.6
1583.94,-13.8
1585.32,-108.4
1586.71,-90.2
1588.09,19.6
1589.47,-341.0
1590.86,-89.8
1592.24,-171.6
1593.62,-126.6
1595.0,-183.0
1596.38,8.6
1597.75,-486.2
1599.13,-75.2
1600.51,8.2
1601.88,-136.4
1603.25,-114.8
1604.63,-49.6
1606.0,136.8
1607.37,95.8
1608.74,48.6
1610.11,-21.2
1611.47,82.8
1612.84,-137.4
1614.21,-98.0
1615.57,75.8
1616.93,152.6
1618.3,-111.8
1619.66,28.2
1621.02,171.8
1622.38,81.0
1623.74,-44.0
1625.1,-44.8
1626.45,137.4
1627.81,63.6
1629.16,227.0
1630.52,45.4
1631.87,161.0
1633.22,92.6
1634.57,35.4
1635.92,101.6
1637.27,30.2
1638.62,-104.8
1639.97,87.2
1641.32,5.4
1642.66,57.0
1644.01,212.2
1645.35,40.4
1646.69,202.8
1648.03,121.0
1649.37,49.4
1650.71,44.8
1652.05,-6.2
1653.39,6.0
1654.73,22.2
1656.06,108.0
1657.4,107.2
1658.73,189.2
1660.06,12.8
1661.39,118.0
1662.72,-60.8
1664.05,110.8
1665.38,-14.2
1666.71,88.6
1668.04,303.8
1669.36,171.8
1670.69,-73.8
1672.01,72.0
1673.34,41.8
1674.66,45.4
1675.98,80.6
1677.3,-103.8
1678.62,95.6
1679.94,-33.0
1681.25,-29.8
1682.57,-41.2
1683.88,-114.6
1685.2,15.0
1686.51,-191.6
1687.82,-163.8
1689.14,39.0
1690.45,-346.2
1691.76,-163.2
1693.06,-252.8
1694.37,-253.2
1695.68,-192.8
1696.98,-360.2
1698.29,-504.6
1699.59,-306.6
1700.89,-276.0
1702.2,-293.4
1703.5,-395.4
1704.8,-253.6
1706.1,-346.0
1707.39,-351.6
1708.69,-443.6
1709.99,-179.2
1711.28,-328.2
1712.57,-357.8
1713.87,-472.6
1715.16,-361.6
1716.45,-266.6
1717.74,-300.0
1719.03,-455.8
1720.32,-560.4
1721.6,-395.6
1722.89,-558.2
1724.18,-348.8
1725.46,-313.2
1726.74,-434.8
1728.03,-483.0
1729.31,-387.4
1730.59,-513.8
1731.87,-427.6
1733.15,-414.4
1734.42,-351.0
1735.7,-413.8
1736.97,-442.8
1738.25,-497.4
1739.52,-425.2
1740.79,-489.0
1742.07,-466.4
1743.34,-507.0
1744.61,-430.4
1745.88,-410.2
1747.14,-476.2
1748.41,-490.4
1749.68,-479.8
1750.94,-568.4
1752.2,-468.8
1753.47,-475.6
1754.73,-354.2
1755.99,-401.4
1757.25,-425.8
1758.51,-400.8
1759.77,-592.8
1761.02,-425.2
1762.28,-609.4
1763.54,-537.6
1764.79,-557.2
1766.04,-528.2
1767.29,-428.6
1768.55,-517.8
1769.8,-468.4
1771.05,-635.6
1772.29,-437.4
1773.54,-512.4
1774.79,-507.0
1776.03,-606.8
1777.28,-618.8
1778.52,-573.2
1779.76,-388.2
1781.01,-603.8
1782.25,-449.4
1783.49,-413.0
1784.72,-571.8
1785.96,-562.0
1787.2,-547.2
1788.43,-444.2
1789.67,-659.8
1790.9,-545.6
1792.14,-549.0
1793.37,-701.2
1794.6,-640.6
1795.83,-594.0
1797.06,-498.0
1798.28,-487.0
1799.51,-549.0
1800.74,-578.4
1801.96,-528.6
1803.19,-563.6
1804.41,-517.2
1805.63,-771.4
1806.85,-710.8
1808.07,-601.4
1809.29,-632.0
1810.51,-576.2
1811.73,-562.0
1812.94,-346.2
1814.16,-583.2
1815.37,-465.0
1816.59,-524.2
1817.8,-589.4
1819.01,-609.6
1820.22,-519.0
1821.43,-615.6
1822.64,-617.8
1823.85,-542.0
1825.05,-481.4
1826.26,-586.4
1827.46,-581.4
1828.67,-489.2
1829.87,-524.0
1831.07,-547.8
1832.27,-551.6
1833.47,-520.2
1834.67,-624.0
1835.87,-511.4
1837.07,-568.6
1838.26,-659.8
1839.46,-730.2
1840.65,-635.6
1841.85,-574.6
1843.04,-659.8
1844.23,-786.6
1845.42,-614.0
1846.61,-644.6
1847.8,-647.2
1848.98,-603.4
1850.17,-519.0
1851.35,-696.2
1852.54,-584.4
1853.72,-635.4
1854.9,-596.8
1856.09,-717.4
1857.27,-654.8
1858.45,-521.6
1859.62,-563.6
1860.8,-631.0
1861.98,-811.0
1863.15,-608.4
1864.33,-631.8
1865.5,-656.0
1866.68,-499.6
1867.85,-596.6
1869.02,-511.4
1870.19,-812.6
1871.36,-575.0
1872.52,-550.4
1873.69,-521.4
1874.86,-536.4
1876.02,-637.6
1877.19,-511.0
1878.35,-476.4
1879.51,-587.0
1880.67,-660.8
1881.83,-574.8
1882.99,-615.8
1884.15,-474.0
1885.31,-522.2
1886.46,-560.6
1887.62,-621.8
1888.77,-474.6
1889.92,-390.6
1891.08,-435.2
1892.23,-761.6
1893.38,-483.8
