Wavenumber,Intensities
282.29,3257.6
284.39,3221.8
286.49,3210.0
288.59,3171.8
290.7,3127.6
292.79,3097.6
294.89,3102.6
296.99,3050.2
299.09,3032.2
301.18,3023.0
303.28,2997.2
305.37,2986.4
307.47,2964.0
309.56,2940.2
311.65,2907.8
313.74,2920.6
315.83,2904.0
317.92,2913.8
320.0,2910.6
322.09,2877.8
324.18,2886.8
326.26,2913.8
328.34,2898.4
330.43,2906.6
332.51,2899.6
334.59,2941.4
336.67,2945.4
338.75,2966.2
340.83,2985.0
342.9,3013.2
344.98,3055.8
347.05,3040.0
349.13,3075.2
351.2,3059.8
353.27,3077.0
355.35,3064.2
357.42,3058.6
359.49,3038.6
361.55,3005.6
363.62,3000.2
365.69,2990.2
367.75,2970.6
369.82,2991.2
371.88,2950.4
373.95,2938.0
376.01,2964.2
378.07,2941.6
380.13,2963.0
382.19,2947.2
384.25,2937.4
386.31,2969.6
388.36,2984.2
390.42,2968.4
392.47,2963.0
394.53,2993.6
396.58,2996.0
398.63,2995.6
400.68,3023.2
402.73,3027.2
404.78,3021.6
406.83,3036.0
408.87,3047.2
410.92,3051.8
412.97,3044.2
415.01,3063.2
417.05,3079.4
419.1,3109.8
421.14,3106.8
423.18,3102.0
425.22,3133.8
427.25,3157.6
429.29,3123.8
431.33,3117.2
433.36,3152.2
435.4,3164.2
437.43,3152.2
439.47,3166.6
441.5,3147.0
443.53,3175.0
445.56,3135.2
447.59,3101.8
449.62,3113.0
451.64,3075.6
453.67,3059.4
455.7,3085.4
457.72,3047.6
459.74,3038.4
461.77,3022.4
463.79,3011.2
465.81,2981.2
467.83,2966.6
469.85,2962.4
471.86,2926.6
473.88,2923.6
475.9,2890.8
477.91,2886.0
479.93,2868.2
481.94,2895.2
483.95,2863.4
485.96,2877.8
487.97,2855.2
489.98,2846.2
491.99,2814.2
494.0,2750.8
496.0,2727.0
498.01,2692.2
500.01,2659.4
502.02,2605.4
504.02,2577.6
506.02,2528.8
508.02,2490.0
510.02,2468.6
512.02,2452.4
514.02,2440.0
516.01,2385.8
518.01,2384.6
520.01,2355.0
522.0,2340.8
523.99,2307.6
525.99,2298.0
527.98,2285.0
529.97,2294.0
531.96,2247.8
533.94,2271.2
535.93,2256.0
537.92,2256.4
539.9,2237.0
541.89,2235.0
543.87,2182.4
545.85,2186.8
547.84,2166.6
549.82,2176.8
551.8,2171.2
553.78,2168.8
555.75,2155.2
557.73,2146.0
559.71,2128.4
561.68,2100.6
563.66,2123.8
565.63,2076.8
567.6,2083.4
569.57,2069.4
571.54,2067.8
573.51,2034.2
575.48,2032.0
577.45,2039.8
579.41,2039.6
581.38,2005.2
583.34,2026.2
585.31,1983.0
587.27,2006.8
589.23,1998.2
591.19,2000.0
593.15,2000.0
595.11,1984.2
597.07,1998.8
599.03,1987.2
600.98,1974.6
602.94,1961.6
604.89,1933.4
606.84,1950.2
608.8,1934.2
610.75,1892.8
612.7,1887.0
614.65,1877.0
616.6,1888.0
618.54,1857.4
620.49,1867.0
622.43,1855.8
624.38,1854.8
626.32,1852.2
628.27,1837.6
630.21,1841.4
632.15,1820.4
634.09,1828.6
636.03,1817.6
637.96,1797.6
639.9,1830.2
641.84,1827.2
643.77,1832.8
645.71,1823.8
647.64,1840.8
649.57,1843.8
651.5,1827.2
653.43,1790.4
655.36,1786.8
657.29,1781.2
659.22,1777.6
661.14,1783.8
663.07,1743.2
664.99,1757.0
666.92,1737.4
668.84,1747.0
670.76,1732.0
672.68,1734.2
674.6,1719.4
676.52,1729.6
678.44,1710.2
680.35,1698.6
682.27,1694.2
684.19,1715.2
686.1,1701.6
688.01,1698.0
689.92,1694.8
691.83,1655.4
693.74,1680.6
695.65,1656.2
697.56,1686.4
699.47,1676.6
701.38,1667.8
703.28,1666.4
705.19,1662.8
707.09,1673.4
708.99,1659.6
710.89,1657.8
712.79,1652.8
714.69,1632.4
716.59,1646.4
718.49,1617.4
720.39,1631.6
722.28,1609.2
724.18,1603.2
726.07,1586.2
727.96,1588.4
729.85,1603.2
731.74,1584.8
733.63,1591.4
735.52,1567.4
737.41,1576.0
739.3,1560.2
741.18,1595.6
743.07,1587.8
744.95,1563.8
746.84,1557.0
748.72,1574.8
750.6,1571.8
752.48,1558.4
754.36,1553.2
756.24,1565.6
758.12,1560.6
759.99,1529.4
761.87,1548.6
763.74,1530.0
765.62,1552.8
767.49,1535.6
769.36,1537.2
771.23,1533.0
773.1,1500.2
774.97,1528.8
776.84,1529.4
778.7,1544.6
780.57,1522.6
782.44,1542.0
784.3,1534.8
786.16,1539.2
788.02,1536.0
789.89,1538.4
791.75,1523.0
793.6,1546.8
795.46,1530.0
797.32,1528.0
799.18,1518.2
801.03,1534.0
802.89,1503.0
804.74,1522.0
806.59,1473.0
808.44,1488.8
810.29,1507.2
812.14,1464.0
813.99,1475.4
815.84,1456.6
817.69,1461.4
819.53,1449.8
821.38,1468.0
823.22,1458.0
825.06,1432.0
826.9,1409.4
828.75,1443.8
830.59,1413.4
832.42,1447.2
834.26,1405.6
836.1,1406.2
837.93,1421.6
839.77,1435.2
841.6,1413.2
843.44,1415.4
845.27,1399.0
847.1,1404.2
848.93,1396.6
850.76,1396.6
852.59,1410.8
854.42,1384.0
856.24,1377.0
858.07,1392.6
859.89,1364.6
861.72,1400.2
863.54,1369.0
865.36,1338.6
867.18,1316.6
869.0,1331.0
870.82,1329.8
872.64,1338.8
874.45,1327.4
876.27,1337.2
878.08,1347.2
879.9,1318.4
881.71,1323.4
883.52,1322.6
885.33,1313.0
887.14,1266.0
888.95,1258.2
890.76,1265.0
892.57,1269.0
894.37,1244.6
896.18,1227.2
897.98,1230.0
899.79,1209.6
901.59,1202.0
903.39,1198.0
905.19,1183.8
906.99,1161.0
908.79,1182.2
910.58,1144.4
912.38,1123.0
914.18,1132.6
915.97,1149.6
917.76,1119.8
919.56,1129.0
921.35,1116.4
923.14,1080.0
924.93,1099.0
926.72,1090.4
928.51,1097.2
930.29,1089.2
932.08,1083.8
933.86,1094.6
935.65,1074.6
937.43,1069.8
939.21,1092.2
940.99,1083.0
942.77,1084.8
944.55,1073.0
946.33,1097.4
948.11,1095.2
949.88,1107.2
951.66,1072.2
953.43,1077.4
955.21,1061.4
956.98,1076.0
958.75,1063.4
960.52,1031.8
962.29,1040.8
964.06,1047.2
965.82,1032.8
967.59,1028.8
969.36,1007.2
971.12,1020.8
972.88,1018.2
974.65,993.2
976.41,991.2
978.17,992.4
979.93,1006.2
981.69,1008.4
983.45,1006.4
985.2,1004.2
986.96,1019.8
988.71,1010.8
990.47,1024.0
992.22,1000.4
993.97,1004.6
995.72,1005.6
997.47,1016.6
999.22,1035.0
1000.97,1053.0
1002.72,1071.8
1004.46,1046.4
1006.21,1022.2
1007.95,1010.0
1009.7,1014.4
1011.44,997.0
1013.18,990.0
1014.92,991.8
1016.66,998.6
1018.4,1006.2
1020.13,990.2
1021.87,998.6
1023.61,976.2
1025.34,981.8
1027.07,1000.2
1028.81,990.2
1030.54,1005.0
1032.27,998.6
1034.0,998.4
1035.73,994.4
1037.46,1003.0
1039.18,1032.6
1040.91,999.2
1042.63,995.2
1044.36,1020.6
1046.08,1017.2
1047.8,1013.0
1049.52,1003.2
1051.24,1015.4
1052.96,1014.6
1054.68,1038.8
1056.4,1021.6
1058.11,1042.2
1059.83,1042.8
1061.54,1033.4
1063.26,1036.4
1064.97,1041.0
1066.68,1049.4
1068.39,1028.4
1070.1,1056.4
1071.81,1045.6
1073.51,1038.0
1075.22,1060.8
1076.93,1079.8
1078.63,1074.6
1080.33,1094.6
1082.04,1093.4
1083.74,1071.2
1085.44,1078.8
1087.14,1065.2
1088.84,1048.0
1090.53,1019.6
1092.23,1019.4
1093.93,1015.6
1095.62,1015.2
1097.32,983.6
1099.01,995.4
1100.7,1002.4
1102.39,988.8
1104.08,989.2
1105.77,975.2
1107.46,975.8
1109.15,977.2
1110.83,993.4
1112.52,1001.6
1114.2,1006.2
1115.88,992.4
1117.57,999.6
1119.25,1011.6
1120.93,1022.6
1122.61,1002.6
1124.28,990.8
1125.96,988.8
1127.64,984.0
1129.31,954.2
1130.99,941.4
1132.66,908.2
1134.33,913.0
1136.01,902.0
1137.68,899.2
1139.35,887.0
1141.01,899.8
1142.68,868.0
1144.35,875.4
1146.01,896.2
1147.68,875.2
1149.34,887.6
1151.01,904.2
1152.67,887.8
1154.33,885.2
1155.99,880.4
1157.65,872.6
1159.3,878.4
1160.96,838.8
1162.62,848.0
1164.27,837.4
1165.93,835.2
1167.58,829.0
1169.23,841.4
1170.88,805.0
1172.53,801.8
1174.18,813.6
1175.83,811.2
1177.48,797.4
1179.12,780.6
1180.77,787.4
1182.41,764.8
1184.06,762.4
1185.7,767.8
1187.34,772.8
1188.98,767.8
1190.62,771.0
1192.26,773.6
1193.9,781.8
1195.53,773.8
1197.17,770.0
1198.8,785.2
1200.44,788.8
1202.07,775.8
1203.7,792.0
1205.33,790.4
1206.96,786.6
1208.59,775.4
1210.22,799.6
1211.85,805.0
1213.47,778.2
1215.1,773.6
1216.72,779.0
1218.34,773.8
1219.96,774.6
1221.59,757.0
1223.21,774.4
1224.83,788.8
1226.44,788.0
1228.06,777.2
1229.68,777.0
1231.29,781.0
1232.91,788.8
1234.52,808.2
1236.13,799.6
1237.74,811.6
1239.35,802.6
1240.96,798.8
1242.57,826.2
1244.18,808.0
1245.78,813.2
1247.39,825.4
1248.99,818.2
1250.6,832.8
1252.2,821.8
1253.8,829.4
1255.4,834.2
1257.0,839.0
1258.6,836.8
1260.2,820.0
1261.8,847.2
1263.39,828.2
1264.99,838.4
1266.58,829.4
1268.17,830.8
1269.77,797.8
1271.36,796.6
1272.95,796.6
1274.54,774.2
1276.12,787.2
1277.71,764.0
1279.3,758.0
1280.88,757.0
1282.47,769.4
1284.05,750.2
1285.63,737.2
1287.21,745.6
1288.79,741.8
1290.37,733.8
1291.95,731.2
1293.53,739.0
1295.1,738.8
1296.68,730.6
1298.25,736.0
1299.83,729.8
1301.4,742.6
1302.97,745.0
1304.54,743.4
1306.11,749.4
1307.68,754.0
1309.25,744.6
1310.81,772.4
1312.38,749.2
1313.94,749.8
1315.51,748.4
1317.07,749.2
1318.63,742.6
1320.19,755.4
1321.75,763.2
1323.31,753.0
1324.87,748.0
1326.43,737.8
1327.98,729.8
1329.54,729.0
1331.09,731.8
1332.64,733.0
1334.2,729.8
1335.75,735.2
1337.3,740.8
1338.85,704.8
1340.4,730.4
1341.94,710.2
1343.49,720.4
1345.03,716.8
1346.58,696.2
1348.12,695.8
1349.66,700.4
1351.21,687.2
1352.75,707.8
1354.29,694.0
1355.82,704.0
1357.36,709.2
1358.9,670.8
1360.43,687.4
1361.97,685.0
1363.5,670.8
1365.03,685.0
1366.57,662.2
1368.1,655.6
1369.63,665.8
1371.16,668.4
1372.68,660.0
1374.21,661.2
1375.74,658.2
1377.26,663.0
1378.78,644.6
1380.31,645.0
1381.83,631.6
1383.35,639.4
1384.87,636.0
1386.39,615.8
1387.91,626.0
1389.42,607.8
1390.94,615.0
1392.46,620.4
1393.97,619.2
1395.48,613.4
1397.0,612.0
1398.51,618.6
1400.02,618.4
1401.53,609.8
1403.04,622.6
1404.54,610.8
1406.05,609.8
1407.55,612.8
1409.06,629.4
1410.56,585.8
1412.06,597.4
1413.57,608.2
1415.07,611.0
1416.57,618.0
1418.07,606.8
1419.56,598.6
1421.06,588.8
1422.56,598.8
1424.05,591.2
1425.54,580.8
1427.04,584.6
1428.53,581.0
1430.02,584.0
1431.51,566.0
1433.0,581.4
1434.49,566.6
1435.97,596.4
1437.46,585.4
1438.94,609.0
1440.43,591.0
1441.91,597.6
1443.39,597.8
1444.88,592.6
1446.36,605.0
1447.83,619.4
1449.31,617.4
1450.79,614.2
1452.27,613.6
1453.74,609.6
1455.22,625.8
1456.69,604.6
1458.16,609.2
1459.63,608.6
1461.1,606.6
1462.57,609.6
1464.04,601.4
1465.51,594.0
1466.98,608.8
1468.44,590.8
1469.91,586.0
1471.37,572.6
1472.83,554.6
1474.3,536.4
1475.76,555.0
1477.22,527.0
1478.67,521.8
1480.13,516.4
1481.59,479.8
1483.05,486.4
1484.5,479.0
1485.95,494.2
1487.41,467.0
1488.86,478.8
1490.31,471.8
1491.76,494.0
1493.21,476.4
1494.66,493.0
1496.11,482.6
1497.55,464.0
1499.0,465.6
1500.44,480.4
1501.88,465.0
1503.33,479.4
1504.77,467.0
1506.21,463.8
1507.65,463.8
1509.09,461.6
1510.52,463.4
1511.96,462.4
1513.4,469.2
1514.83,457.0
1516.26,469.6
1517.7,467.6
1519.13,454.2
1520.56,474.6
1521.99,461.6
1523.42,454.0
1524.85,479.8
1526.27,473.0
1527.7,475.2
1529.12,460.8
1530.55,465.8
1531.97,444.2
1533.39,460.4
1534.81,472.2
1536.23,460.4
1537.65,481.4
1539.07,479.2
1540.49,491.4
1541.9,468.0
1543.32,486.2
1544.73,488.2
1546.15,499.0
1547.56,488.8
1548.97,479.8
1550.38,505.6
1551.79,530.4
1553.2,530.0
1554.61,542.4
1556.01,539.2
1557.42,534.0
1558.82,509.0
1560.22,524.6
1561.63,488.4
1563.03,494.8
1564.43,509.2
1565.83,503.4
1567.23,508.6
1568.63,513.6
1570.02,511.8
1571.42,523.4
1572.81,535.2
1574.21,510.4
1575.6,516.4
1576.99,533.8
1578.38,526.6
1579.77,542.8
1581.16,556.0
1582.55,538.6
1583.94,559.6
1585.32,562.4
1586.71,575.6
1588.09,552.0
1589.47,560.4
1590.86,570.8
1592.24,589.4
1593.62,588.6
1595.0,594.6
1596.38,609.8
1597.75,606.8
1599.13,620.6
1600.51,611.0
1601.88,627.2
1603.25,655.4
1604.63,650.8
1606.0,668.0
1607.37,659.0
1608.74,673.6
1610.11,651.6
1611.47,672.2
1612.84,668.2
1614.21,701.0
1615.57,673.6
1616.93,699.4
1618.3,691.8
1619.66,699.4
1621.02,710.6
1622.38,691.2
1623.74,711.6
1625.1,707.2
1626.45,710.6
1627.81,732.8
1629.16,717.0
1630.52,724.0
1631.87,730.8
1633.22,715.8
1634.57,737.2
1635.92,742.0
1637.27,716.0
1638.62,717.2
1639.97,737.6
1641.32,737.4
1642.66,739.4
1644.01,721.6
1645.35,725.4
1646.69,727.4
1648.03,725.6
1649.37,725.0
1650.71,716.8
1652.05,714.6
1653.39,705.8
1654.73,710.0
1656.06,699.2
1657.4,695.4
1658.73,700.6
1660.06,681.8
1661.39,683.2
1662.72,679.6
1664.05,661.4
1665.38,667.0
1666.71,660.8
1668.04,637.8
1669.36,634.4
1670.69,630.2
1672.01,634.0
1673.34,595.4
1674.66,599.2
1675.98,600.6
1677.3,571.0
1678.62,572.8
1679.94,569.4
1681.25,538.4
1682.57,542.8
1683.88,504.0
1685.2,508.8
1686.51,511.4
1687.82,490.4
1689.14,489.0
1690.45,476.4
1691.76,465.4
1693.06,472.4
1694.37,429.8
1695.68,431.0
1696.98,418.6
1698.29,411.6
1699.59,411.6
1700.89,399.4
1702.2,381.8
1703.5,387.4
1704.8,381.2
1706.1,347.0
1707.39,358.4
1708.69,366.0
1709.99,352.4
1711.28,341.0
1712.57,334.8
1713.87,337.8
1715.16,310.8
1716.45,317.4
1717.74,313.0
1719.03,300.6
1720.32,327.4
1721.6,305.0
1722.89,295.6
1724.18,296.8
1725.46,286.8
1726.74,278.4
1728.03,269.6
1729.31,276.2
1730.59,269.0
1731.87,264.8
1733.15,268.4
1734.42,272.8
1735.7,259.8
1736.97,267.0
1738.25,242.4
1739.52,241.0
1740.79,227.8
1742.07,231.2
1743.34,253.4
1744.61,243.0
1745.88,236.2
1747.14,213.2
1748.41,235.6
1749.68,221.8
1750.94,223.6
1752.2,230.6
1753.47,223.2
1754.73,220.8
1755.99,198.4
1757.25,208.6
1758.51,207.4
1759.77,211.4
1761.02,223.0
1762.28,194.4
1763.54,208.2
1764.79,196.4
1766.04,205.0
1767.29,207.8
1768.55,186.8
1769.8,195.2
1771.05,189.0
1772.29,198.8
1773.54,177.0
1774.79,193.0
1776.03,185.6
1777.28,180.2
1778.52,181.8
1779.76,175.4
1781.01,182.4
1782.25,169.2
1783.49,170.2
1784.72,184.2
1785.96,171.4
1787.2,190.6
1788.43,189.0
1789.67,162.6
1790.9,168.8
1792.14,170.0
1793.37,161.2
1794.6,173.2
1795.83,178.6
1797.06,167.6
1798.28,156.6
1799.51,174.4
1800.74,154.0
1801.96,159.4
1803.19,149.6
1804.41,156.4
1805.63,150.4
1806.85,167.6
1808.07,162.6
1809.29,143.8
1810.51,164.2
1811.73,149.8
1812.94,148.2
1814.16,129.4
1815.37,143.8
1816.59,146.4
1817.8,148.6
1819.01,165.8
1820.22,156.8
1821.43,145.4
1822.64,149.6
1823.85,150.8
1825.05,148.0
1826.26,133.8
1827.46,135.2
1828.67,150.4
1829.87,149.4
1831.07,135.0
1832.27,131.2
1833.47,139.4
1834.67,132.4
1835.87,132.2
1837.07,134.4
1838.26,134.6
1839.46,134.4
1840.65,122.2
1841.85,142.6
1843.04,130.6
1844.23,128.2
1845.42,123.8
1846.61,130.4
1847.8,127.8
1848.98,127.4
1850.17,123.6
1851.35,132.4
1852.54,130.2
1853.72,120.8
1854.9,130.2
1856.09,145.2
1857.27,120.0
1858.45,133.6
1859.62,117.6
1860.8,133.2
1861.98,116.6
1863.15,125.8
1864.33,128.2
1865.5,130.0
1866.68,135.2
1867.85,119.4
1869.02,124.4
1870.19,126.6
1871.36,136.4
1872.52,113.8
1873.69,109.8
1874.86,123.4
1876.02,136.4
1877.19,135.6
1878.35,117.6
1879.51,129.0
1880.67,119.6
1881.83,122.4
1882.99,128.2
1884.15,126.8
1885.31,122.0
1886.46,130.4
1887.62,134.8
1888.77,130.6
1889.92,117.8
1891.08,112.0
1892.23,108.2
1893.38,110.4
