Wavenumber,Intensities
282.29,5776.8
284.39,5737.8
286.49,5636.0
288.59,5597.4
290.7,5564.8
292.79,5500.0
294.89,5466.4
296.99,5443.8
299.09,5380.0
301.18,5334.6
303.28,5293.0
305.37,5294.6
307.47,5264.0
309.56,5211.2
311.65,5254.0
313.74,5211.0
315.83,5197.8
317.92,5221.4
320.0,5173.0
322.09,5160.8
324.18,5221.0
326.26,5201.8
328.34,5239.2
330.43,5229.8
332.51,5218.4
334.59,5280.4
336.67,5313.4
338.75,5323.8
340.83,5349.2
342.9,5433.6
344.98,5483.0
347.05,5522.8
349.13,5553.2
351.2,5555.8
353.27,5597.8
355.35,5595.8
357.42,5561.6
359.49,5547.0
361.55,5486.8
363.62,5402.6
365.69,5401.4
367.75,5354.6
369.82,5358.2
371.88,5335.2
373.95,5260.0
376.01,5292.8
378.07,5259.4
380.13,5301.4
382.19,5317.6
384.25,5280.4
386.31,5336.4
388.36,5302.0
390.42,5330.8
392.47,5288.0
394.53,5366.0
396.58,5380.8
398.63,5430.6
400.68,5445.4
402.73,5437.8
404.78,5449.4
406.83,5450.6
408.87,5483.6
410.92,5495.0
412.97,5500.8
415.01,5567.0
417.05,5577.2
419.1,5619.2
421.14,5621.4
423.18,5665.0
425.22,5645.2
427.25,5668.6
429.29,5668.8
431.33,5712.8
433.36,5729.4
435.4,5701.2
437.43,5725.2
439.47,5709.2
441.5,5708.4
443.53,5655.2
445.56,5627.6
447.59,5631.4
449.62,5635.6
451.64,5596.6
453.67,5549.6
455.7,5553.4
457.72,5520.0
459.74,5502.6
461.77,5447.0
463.79,5426.6
465.81,5334.8
467.83,5317.6
469.85,5331.2
471.86,5294.4
473.88,5272.2
475.9,5234.2
477.91,5231.8
479.93,5217.8
481.94,5171.8
483.95,5156.8
485.96,5170.6
487.97,5138.8
489.98,5113.0
491.99,5031.4
494.0,4985.8
496.0,4889.8
498.01,4819.0
500.01,4754.4
502.02,4698.6
504.02,4594.0
506.02,4551.8
508.02,4462.2
510.02,4441.6
512.02,4360.6
514.02,4311.8
516.01,4275.4
518.01,4233.0
520.01,4195.4
522.0,4172.2
523.99,4110.4
525.99,4108.0
527.98,4039.6
529.97,4017.6
531.96,4026.6
533.94,4004.4
535.93,3986.0
537.92,3975.4
539.9,3911.6
541.89,3940.4
543.87,3923.8
545.85,3863.6
547.84,3849.6
549.82,3793.6
551.8,3807.6
553.78,3791.6
555.75,3729.2
557.73,3751.8
559.71,3737.0
561.68,3707.6
563.66,3680.8
565.63,3665.0
567.6,3683.8
569.57,3656.4
571.54,3647.0
573.51,3618.2
575.48,3584.8
577.45,3593.4
579.41,3586.8
581.38,3572.0
583.34,3564.4
585.31,3525.8
587.27,3519.0
589.23,3535.2
591.19,3508.8
593.15,3484.0
595.11,3488.6
597.07,3490.6
599.03,3476.6
600.98,3467.8
602.94,3457.4
604.89,3458.2
606.84,3416.6
608.8,3399.0
610.75,3366.6
612.7,3361.8
614.65,3338.4
616.6,3313.0
618.54,3287.2
620.49,3291.0
622.43,3280.6
624.38,3295.2
626.32,3240.8
628.27,3214.4
630.21,3217.6
632.15,3204.6
634.09,3215.0
636.03,3207.0
637.96,3226.6
639.9,3210.6
641.84,3250.4
643.77,3272.2
645.71,3240.6
647.64,3253.4
649.57,3243.6
651.5,3199.4
653.43,3213.8
655.36,3155.6
657.29,3165.4
659.22,3134.0
661.14,3115.0
663.07,3131.4
664.99,3107.4
666.92,3072.0
668.84,3084.8
670.76,3071.0
672.68,3088.4
674.6,3044.4
676.52,3050.2
678.44,3046.0
680.35,3028.4
682.27,3003.4
684.19,3006.4
686.1,2995.6
688.01,2998.8
689.92,2993.6
691.83,2977.4
693.74,2984.4
695.65,2950.4
697.56,2977.8
699.47,2954.6
701.38,2956.0
703.28,2982.8
705.19,2949.0
707.09,2976.0
708.99,2961.8
710.89,2959.0
712.79,2948.0
714.69,2938.8
716.59,2921.0
718.49,2891.4
720.39,2879.4
722.28,2877.2
724.18,2849.0
726.07,2801.0
727.96,2802.2
729.85,2819.8
731.74,2827.8
733.63,2823.2
735.52,2801.2
737.41,2807.4
739.3,2786.0
741.18,2789.0
743.07,2780.0
744.95,2824.4
746.84,2801.2
748.72,2791.8
750.6,2780.0
752.48,2772.2
754.36,2797.2
756.24,2734.8
758.12,2760.4
759.99,2760.8
761.87,2751.0
763.74,2748.2
765.62,2738.4
767.49,2712.6
769.36,2759.6
771.23,2737.4
773.1,2742.2
774.97,2721.4
776.84,2768.8
778.7,2726.2
780.57,2754.8
782.44,2773.8
784.3,2755.2
786.16,2790.0
788.02,2765.6
789.89,2756.8
791.75,2758.8
793.6,2754.4
795.46,2765.8
797.32,2734.4
799.18,2747.0
801.03,2740.6
802.89,2683.4
804.74,2694.8
806.59,2708.8
808.44,2694.2
810.29,2701.0
812.14,2668.4
813.99,2651.6
815.84,2652.4
817.69,2617.4
819.53,2623.6
821.38,2621.8
823.22,2663.0
825.06,2626.0
826.9,2644.0
828.75,2646.2
830.59,2614.6
832.42,2602.4
834.26,2588.6
836.1,2560.8
837.93,2599.2
839.77,2571.0
841.6,2594.8
843.44,2604.6
845.27,2591.6
847.1,2615.4
848.93,2613.4
850.76,2625.2
852.59,2603.2
854.42,2584.6
856.24,2560.4
858.07,2594.6
859.89,2546.2
861.72,2554.0
863.54,2506.2
865.36,2487.6
867.18,2496.2
869.0,2476.4
870.82,2493.6
872.64,2496.8
874.45,2500.4
876.27,2475.6
878.08,2519.4
879.9,2531.2
881.71,2521.8
883.52,2485.4
885.33,2480.0
887.14,2415.2
888.95,2403.8
890.76,2398.4
892.57,2359.4
894.37,2329.8
896.18,2329.0
897.98,2293.6
899.79,2303.6
901.59,2262.2
903.39,2198.4
905.19,2210.4
906.99,2178.0
908.79,2191.4
910.58,2162.8
912.38,2139.4
914.18,2109.6
915.97,2126.4
917.76,2117.0
919.56,2090.2
921.35,2117.0
923.14,2054.0
924.93,2049.8
926.72,2039.6
928.51,2031.4
930.29,2031.2
932.08,2018.6
933.86,2023.2
935.65,2023.6
937.43,2021.2
939.21,2039.4
940.99,2060.2
942.77,2033.4
944.55,2060.0
946.33,2049.0
948.11,2061.6
949.88,2068.8
951.66,2039.6
953.43,2023.8
955.21,2011.6
956.98,1996.2
958.75,1976.8
960.52,1964.4
962.29,1972.8
964.06,1941.2
965.82,1923.2
967.59,1928.2
969.36,1885.6
971.12,1886.8
972.88,1857.8
974.65,1878.8
976.41,1883.2
978.17,1912.0
979.93,1922.4
981.69,1887.6
983.45,1888.6
985.2,1890.6
986.96,1930.4
988.71,1921.8
990.47,1905.4
992.22,1889.0
993.97,1900.8
995.72,1897.0
997.47,1949.2
999.22,1960.6
1000.97,2019.6
1002.72,2054.8
1004.46,2035.0
1006.21,1998.6
1007.95,1910.4
1009.7,1887.4
1011.44,1912.2
1013.18,1888.0
1014.92,1895.8
1016.66,1942.6
1018.4,1930.6
1020.13,1911.4
1021.87,1928.2
1023.61,1934.8
1025.34,1928.0
1027.07,1923.2
1028.81,1908.4
1030.54,1953.8
1032.27,1943.2
1034.0,1932.4
1035.73,1952.6
1037.46,1958.4
1039.18,1941.0
1040.91,1964.0
1042.63,1957.8
1044.36,1976.8
1046.08,1970.6
1047.8,1983.6
1049.52,1993.0
1051.24,1989.8
1052.96,2013.8
1054.68,1993.6
1056.4,2031.4
1058.11,2045.0
1059.83,2006.2
1061.54,2023.4
1063.26,2020.0
1064.97,2029.2
1066.68,2012.8
1068.39,2010.2
1070.1,2039.8
1071.81,2057.0
1073.51,2082.2
1075.22,2105.0
1076.93,2142.2
1078.63,2145.4
1080.33,2155.2
1082.04,2153.4
1083.74,2167.6
1085.44,2130.2
1087.14,2085.8
1088.84,2072.0
1090.53,2048.0
1092.23,2017.4
1093.93,2003.2
1095.62,2007.2
1097.32,1971.2
1099.01,1924.2
1100.7,1937.0
1102.39,1932.2
1104.08,1901.2
1105.77,1909.2
1107.46,1913.6
1109.15,1919.0
1110.83,1942.2
1112.52,1947.8
1114.2,1958.6
1115.88,1971.8
1117.57,2020.0
1119.25,1996.6
1120.93,2027.6
1122.61,2000.2
1124.28,1989.2
1125.96,1960.8
1127.64,1916.8
1129.31,1889.4
1130.99,1860.6
1132.66,1818.2
1134.33,1805.0
1136.01,1769.6
1137.68,1744.2
1139.35,1707.6
1141.01,1717.6
1142.68,1730.0
1144.35,1712.6
1146.01,1704.0
1147.68,1731.0
1149.34,1741.2
1151.01,1736.6
1152.67,1732.8
1154.33,1702.4
1155.99,1723.0
1157.65,1691.0
1159.3,1688.0
1160.96,1629.8
1162.62,1629.2
1164.27,1606.0
1165.93,1593.4
1167.58,1565.2
1169.23,1561.4
1170.88,1536.2
1172.53,1558.2
1174.18,1513.8
1175.83,1517.4
1177.48,1472.4
1179.12,1498.2
1180.77,1473.0
1182.41,1448.0
1184.06,1439.0
1185.7,1467.0
1187.34,1456.4
1188.98,1450.6
1190.62,1470.4
1192.26,1455.2
1193.9,1481.2
1195.53,1483.2
1197.17,1487.8
1198.8,1493.6
1200.44,1494.4
1202.07,1481.6
1203.7,1472.8
1205.33,1498.4
1206.96,1521.6
1208.59,1506.6
1210.22,1487.6
1211.85,1474.0
1213.47,1484.6
1215.1,1484.6
1216.72,1469.4
1218.34,1465.8
1219.96,1488.2
1221.59,1480.6
1223.21,1489.2
1224.83,1521.8
1226.44,1484.0
1228.06,1506.2
1229.68,1539.6
1231.29,1519.6
1232.91,1531.4
1234.52,1528.0
1236.13,1538.2
1237.74,1567.4
1239.35,1550.4
1240.96,1556.2
1242.57,1596.2
1244.18,1602.6
1245.78,1591.8
1247.39,1626.6
1248.99,1612.6
1250.6,1632.6
1252.2,1638.6
1253.8,1629.0
1255.4,1633.6
1257.0,1622.8
1258.6,1647.2
1260.2,1661.6
1261.8,1653.2
1263.39,1645.6
1264.99,1649.4
1266.58,1622.6
1268.17,1632.4
1269.77,1584.8
1271.36,1587.2
1272.95,1569.6
1274.54,1571.0
1276.12,1513.2
1277.71,1504.6
1279.3,1493.0
1280.88,1482.4
1282.47,1470.2
1284.05,1436.0
1285.63,1442.0
1287.21,1442.8
1288.79,1427.6
1290.37,1430.0
1291.95,1413.4
1293.53,1416.4
1295.1,1396.6
1296.68,1446.4
1298.25,1427.6
1299.83,1418.8
1301.4,1413.2
1302.97,1444.4
1304.54,1435.4
1306.11,1435.8
1307.68,1451.2
1309.25,1454.8
1310.81,1462.0
1312.38,1482.4
1313.94,1462.0
1315.51,1471.0
1317.07,1477.8
1318.63,1459.4
1320.19,1485.0
1321.75,1495.8
1323.31,1486.0
1324.87,1435.2
1326.43,1450.6
1327.98,1459.6
1329.54,1456.4
1331.09,1449.0
1332.64,1445.8
1334.2,1438.6
1335.75,1462.6
1337.3,1448.2
1338.85,1440.6
1340.4,1414.4
1341.94,1421.6
1343.49,1442.6
1345.03,1418.8
1346.58,1429.2
1348.12,1377.4
1349.66,1367.8
1351.21,1382.6
1352.75,1333.8
1354.29,1342.2
1355.82,1324.6
1357.36,1318.4
1358.9,1326.6
1360.43,1331.0
1361.97,1303.2
1363.5,1336.6
1365.03,1322.0
1366.57,1283.4
1368.1,1302.2
1369.63,1300.8
1371.16,1301.8
1372.68,1285.6
1374.21,1272.2
1375.74,1281.2
1377.26,1273.0
1378.78,1270.4
1380.31,1258.0
1381.83,1252.8
1383.35,1258.0
1384.87,1242.6
1386.39,1251.0
1387.91,1239.4
1389.42,1219.4
1390.94,1222.6
1392.46,1207.4
1393.97,1230.8
1395.48,1198.0
1397.0,1200.2
1398.51,1207.4
1400.02,1204.6
1401.53,1176.6
1403.04,1179.8
1404.54,1179.4
1406.05,1155.8
1407.55,1179.2
1409.06,1140.0
1410.56,1155.6
1412.06,1135.6
1413.57,1176.4
1415.07,1167.0
1416.57,1137.0
1418.07,1142.4
1419.56,1162.2
1421.06,1178.0
1422.56,1147.0
1424.05,1157.4
1425.54,1154.2
1427.04,1144.4
1428.53,1143.0
1430.02,1119.2
1431.51,1114.8
1433.0,1110.0
1434.49,1136.0
1435.97,1133.0
1437.46,1143.4
1438.94,1176.6
1440.43,1134.6
1441.91,1168.0
1443.39,1204.6
1444.88,1189.2
1446.36,1189.8
1447.83,1199.8
1449.31,1213.0
1450.79,1232.2
1452.27,1234.6
1453.74,1202.8
1455.22,1209.0
1456.69,1189.2
1458.16,1195.4
1459.63,1199.0
1461.1,1223.0
1462.57,1181.0
1464.04,1191.0
1465.51,1195.4
1466.98,1199.8
1468.44,1177.8
1469.91,1122.2
1471.37,1087.6
1472.83,1070.8
1474.3,1057.0
1475.76,1027.0
1477.22,982.2
1478.67,969.0
1480.13,946.0
1481.59,939.4
1483.05,928.0
1484.5,944.8
1485.95,893.8
1487.41,899.2
1488.86,915.0
1490.31,867.2
1491.76,876.4
1493.21,888.0
1494.66,860.8
1496.11,854.6
1497.55,849.6
1499.0,849.2
1500.44,836.0
1501.88,832.2
1503.33,848.2
1504.77,832.4
1506.21,835.4
1507.65,862.0
1509.09,842.2
1510.52,846.8
1511.96,845.2
1513.4,836.4
1514.83,821.4
1516.26,849.6
1517.7,828.0
1519.13,825.6
1520.56,841.0
1521.99,827.4
1523.42,817.0
1524.85,840.6
1526.27,843.4
1527.7,831.8
1529.12,840.6
1530.55,852.2
1531.97,865.2
1533.39,836.8
1534.81,839.2
1536.23,872.8
1537.65,842.2
1539.07,845.2
1540.49,862.4
1541.9,850.2
1543.32,871.4
1544.73,859.8
1546.15,878.4
1547.56,878.6
1548.97,900.4
1550.38,915.2
1551.79,939.2
1553.2,941.8
1554.61,981.4
1556.01,1008.2
1557.42,960.2
1558.82,929.6
1560.22,926.8
1561.63,911.2
1563.03,889.8
1564.43,887.0
1565.83,896.2
1567.23,888.4
1568.63,920.2
1570.02,914.0
1571.42,909.8
1572.81,908.8
1574.21,916.6
1575.6,918.8
1576.99,926.4
1578.38,953.0
1579.77,960.0
1581.16,988.4
1582.55,968.6
1583.94,971.2
1585.32,1000.6
1586.71,978.6
1588.09,988.4
1589.47,1024.8
1590.86,992.6
1592.24,1010.6
1593.62,1035.8
1595.0,1046.2
1596.38,1064.2
1597.75,1089.8
1599.13,1074.4
1600.51,1101.8
1601.88,1108.2
1603.25,1115.6
1604.63,1139.0
1606.0,1175.6
1607.37,1149.0
1608.74,1159.8
1610.11,1174.6
1611.47,1183.2
1612.84,1175.4
1614.21,1218.2
1615.57,1224.8
1616.93,1224.8
1618.3,1235.8
1619.66,1235.6
1621.02,1223.6
1622.38,1225.6
1623.74,1220.4
1625.1,1243.6
1626.45,1286.6
1627.81,1267.6
1629.16,1285.0
1630.52,1262.2
1631.87,1276.0
1633.22,1280.2
1634.57,1277.2
1635.92,1279.6
1637.27,1265.0
1638.62,1297.2
1639.97,1267.4
1641.32,1261.6
1642.66,1279.0
1644.01,1284.0
1645.35,1278.6
1646.69,1278.6
1648.03,1287.8
1649.37,1263.6
1650.71,1240.6
1652.05,1266.6
1653.39,1255.0
1654.73,1241.0
1656.06,1260.0
1657.4,1215.0
1658.73,1246.6
1660.06,1214.2
1661.39,1198.8
1662.72,1208.4
1664.05,1174.6
1665.38,1161.8
1666.71,1165.4
1668.04,1117.4
1669.36,1118.0
1670.69,1146.8
1672.01,1086.6
1673.34,1103.0
1674.66,1075.2
1675.98,1053.4
1677.3,1029.8
1678.62,1016.8
1679.94,1010.2
1681.25,989.6
1682.57,963.6
1683.88,928.6
1685.2,900.8
1686.51,890.8
1687.82,856.6
1689.14,859.6
1690.45,824.6
1691.76,814.6
1693.06,797.4
1694.37,775.4
1695.68,778.4
1696.98,729.0
1698.29,728.4
1699.59,715.6
1700.89,703.8
1702.2,695.0
1703.5,695.0
1704.8,673.0
1706.1,663.0
1707.39,654.6
1708.69,611.8
1709.99,620.2
1711.28,616.0
1712.57,586.8
1713.87,577.0
1715.16,564.8
1716.45,578.6
1717.74,555.4
1719.03,541.2
1720.32,546.4
1721.6,548.4
1722.89,524.6
1724.18,509.8
1725.46,502.2
1726.74,502.6
1728.03,517.4
1729.31,493.0
1730.59,471.2
1731.87,485.6
1733.15,462.6
1734.42,472.4
1735.7,461.6
1736.97,449.0
1738.25,448.8
1739.52,444.8
1740.79,457.8
1742.07,430.0
1743.34,429.4
1744.61,406.0
1745.88,425.2
1747.14,406.8
1748.41,411.0
1749.68,404.2
1750.94,413.0
1752.2,410.6
1753.47,400.8
1754.73,406.2
1755.99,393.6
1757.25,370.0
1758.51,370.6
1759.77,382.4
1761.02,388.0
1762.28,360.6
1763.54,380.0
1764.79,331.6
1766.04,359.0
1767.29,337.0
1768.55,358.8
1769.8,349.2
1771.05,347.8
1772.29,348.4
1773.54,360.6
1774.79,338.6
1776.03,351.6
1777.28,341.6
1778.52,343.2
1779.76,403.8
1781.01,487.6
1782.25,454.6
1783.49,418.8
1784.72,365.4
1785.96,303.0
1787.2,332.6
1788.43,311.6
1789.67,309.0
1790.9,319.6
1792.14,312.8
1793.37,313.8
1794.6,302.8
1795.83,310.6
1797.06,293.6
1798.28,299.6
1799.51,283.4
1800.74,289.4
1801.96,289.2
1803.19,269.6
1804.41,302.8
1805.63,285.8
1806.85,286.4
1808.07,287.0
1809.29,294.6
1810.51,306.2
1811.73,277.6
1812.94,278.4
1814.16,285.0
1815.37,279.6
1816.59,274.2
1817.8,266.6
1819.01,270.2
1820.22,271.8
1821.43,268.0
1822.64,265.8
1823.85,257.4
1825.05,241.4
1826.26,266.4
1827.46,270.6
1828.67,265.2
1829.87,267.2
1831.07,264.8
1832.27,267.8
1833.47,242.8
1834.67,249.0
1835.87,270.6
1837.07,240.2
1838.26,276.4
1839.46,248.4
1840.65,245.8
1841.85,244.2
1843.04,239.0
1844.23,265.2
1845.42,239.2
1846.61,247.8
1847.8,229.6
1848.98,247.4
1850.17,237.6
1851.35,224.8
1852.54,249.8
1853.72,224.8
1854.9,232.4
1856.09,245.2
1857.27,246.0
1858.45,244.0
1859.62,230.8
1860.8,225.6
1861.98,228.8
1863.15,242.2
1864.33,226.0
1865.5,226.2
1866.68,230.8
1867.85,222.6
1869.02,242.8
1870.19,218.6
1871.36,245.4
1872.52,230.6
1873.69,242.8
1874.86,213.4
1876.02,239.4
1877.19,220.4
1878.35,194.6
1879.51,220.8
1880.67,235.4
1881.83,234.4
1882.99,237.6
1884.15,214.0
1885.31,226.2
1886.46,220.4
1887.62,207.2
1888.77,199.2
1889.92,210.4
1891.08,207.4
1892.23,234.2
1893.38,219.6
