Wavenumber,Intensities
282.29,2787.6
284.39,2747.4
286.49,2723.8
288.59,2747.4
290.7,2677.6
292.79,2651.8
294.89,2635.8
296.99,2625.4
299.09,2592.4
301.18,2571.2
303.28,2585.2
305.37,2556.6
307.47,2537.8
309.56,2534.8
311.65,2518.0
313.74,2492.4
315.83,2504.0
317.92,2467.4
320.0,2506.8
322.09,2509.6
324.18,2518.4
326.26,2517.6
328.34,2533.2
330.43,2523.4
332.51,2530.8
334.59,2538.4
336.67,2568.8
338.75,2587.2
340.83,2598.4
342.9,2607.2
344.98,2650.2
347.05,2673.0
349.13,2701.8
351.2,2703.4
353.27,2707.8
355.35,2710.2
357.42,2707.6
359.49,2683.6
361.55,2640.8
363.62,2631.0
365.69,2587.6
367.75,2601.0
369.82,2560.8
371.88,2561.6
373.95,2546.0
376.01,2545.6
378.07,2565.8
380.13,2561.4
382.19,2562.4
384.25,2545.0
386.31,2563.4
388.36,2534.0
390.42,2560.8
392.47,2580.4
394.53,2584.8
396.58,2577.4
398.63,2613.6
400.68,2595.2
402.73,2644.4
404.78,2640.4
406.83,2641.8
408.87,2648.4
410.92,2648.0
412.97,2650.0
415.01,2665.4
417.05,2709.6
419.1,2706.2
421.14,2719.0
423.18,2710.0
425.22,2721.0
427.25,2739.2
429.29,2745.6
431.33,2765.6
433.36,2753.2
435.4,2795.2
437.43,2771.8
439.47,2773.2
441.5,2764.8
443.53,2751.4
445.56,2734.6
447.59,2717.2
449.62,2720.2
451.64,2702.4
453.67,2686.4
455.7,2680.4
457.72,2681.2
459.74,2639.8
461.77,2623.8
463.79,2632.2
465.81,2610.8
467.83,2608.2
469.85,2586.6
471.86,2573.0
473.88,2529.6
475.9,2543.4
477.91,2530.6
479.93,2499.2
481.94,2510.4
483.95,2498.6
485.96,2465.0
487.97,2494.4
489.98,2445.4
491.99,2431.4
494.0,2393.4
496.0,2367.8
498.01,2341.0
500.01,2306.8
502.02,2239.4
504.02,2218.8
506.02,2190.8
508.02,2148.2
510.02,2123.8
512.02,2105.2
514.02,2061.8
516.01,2071.0
518.01,2045.6
520.01,2040.6
522.0,2020.0
523.99,1970.8
525.99,1976.6
527.98,1959.0
529.97,1937.8
531.96,1947.4
533.94,1941.6
535.93,1916.0
537.92,1904.0
539.9,1881.6
541.89,1907.0
543.87,1862.8
545.85,1852.8
547.84,1848.8
549.82,1819.0
551.8,1844.6
553.78,1823.0
555.75,1808.2
557.73,1789.8
559.71,1795.8
561.68,1770.0
563.66,1791.8
565.63,1759.6
567.6,1739.0
569.57,1745.6
571.54,1741.2
573.51,1730.6
575.48,1729.4
577.45,1724.6
579.41,1724.8
581.38,1713.8
583.34,1687.4
585.31,1698.8
587.27,1715.4
589.23,1692.8
591.19,1699.0
593.15,1686.8
595.11,1662.6
597.07,1666.0
599.03,1663.2
600.98,1687.0
602.94,1655.4
604.89,1661.4
606.84,1634.8
608.8,1635.8
610.75,1643.2
612.7,1592.4
614.65,1622.6
616.6,1595.8
618.54,1592.8
620.49,1611.8
622.43,1577.4
624.38,1549.2
626.32,1568.2
628.27,1550.0
630.21,1556.6
632.15,1550.6
634.09,1547.6
636.03,1529.2
637.96,1532.4
639.9,1539.2
641.84,1557.4
643.77,1571.8
645.71,1544.6
647.64,1562.8
649.57,1557.0
651.5,1554.2
653.43,1554.2
655.36,1534.6
657.29,1556.0
659.22,1549.6
661.14,1509.2
663.07,1504.6
664.99,1494.8
666.92,1492.2
668.84,1479.6
670.76,1465.8
672.68,1448.0
674.6,1437.2
676.52,1455.6
678.44,1455.6
680.35,1441.8
682.27,1441.2
684.19,1451.2
686.1,1445.2
688.01,1421.4
689.92,1425.6
691.83,1423.0
693.74,1445.0
695.65,1425.2
697.56,1432.2
699.47,1430.6
701.38,1423.8
703.28,1416.4
705.19,1430.6
707.09,1424.6
708.99,1432.2
710.89,1426.2
712.79,1435.0
714.69,1378.2
716.59,1400.4
718.49,1385.8
720.39,1379.2
722.28,1370.6
724.18,1380.6
726.07,1362.4
727.96,1378.4
729.85,1354.6
731.74,1336.2
733.63,1356.4
735.52,1347.0
737.41,1365.2
739.3,1321.0
741.18,1338.2
743.07,1355.2
744.95,1334.0
746.84,1339.8
748.72,1350.8
750.6,1331.8
752.48,1337.6
754.36,1331.2
756.24,1340.4
758.12,1340.8
759.99,1333.2
761.87,1311.0
763.74,1316.8
765.62,1339.4
767.49,1320.0
769.36,1316.6
771.23,1317.4
773.1,1335.2
774.97,1321.0
776.84,1333.4
778.7,1345.2
780.57,1312.4
782.44,1334.2
784.3,1336.6
786.16,1322.2
788.02,1329.0
789.89,1334.4
791.75,1345.6
793.6,1338.6
795.46,1347.6
797.32,1300.2
799.18,1324.2
801.03,1305.8
802.89,1321.0
804.74,1312.4
806.59,1285.8
808.44,1323.8
810.29,1297.4
812.14,1286.6
813.99,1292.6
815.84,1267.6
817.69,1295.2
819.53,1256.0
821.38,1267.6
823.22,1285.0
825.06,1282.4
826.9,1275.0
828.75,1279.2
830.59,1282.0
832.42,1269.8
834.26,1257.6
836.1,1256.0
837.93,1266.8
839.77,1252.2
841.6,1265.0
843.44,1268.2
845.27,1279.6
847.1,1291.4
848.93,1309.6
850.76,1307.8
852.59,1297.2
854.42,1252.6
856.24,1276.6
858.07,1256.4
859.89,1250.0
861.72,1263.0
863.54,1247.6
865.36,1210.4
867.18,1220.2
869.0,1220.8
870.82,1215.0
872.64,1226.2
874.45,1229.8
876.27,1258.2
878.08,1227.0
879.9,1259.6
881.71,1252.4
883.52,1214.6
885.33,1187.8
887.14,1178.0
888.95,1191.6
890.76,1185.8
892.57,1136.4
894.37,1139.0
896.18,1158.0
897.98,1130.0
899.79,1138.4
901.59,1105.6
903.39,1110.2
905.19,1102.4
906.99,1064.8
908.79,1063.0
910.58,1054.0
912.38,1052.2
914.18,1030.0
915.97,1030.8
917.76,1041.6
919.56,1040.2
921.35,1028.6
923.14,1019.6
924.93,1025.2
926.72,1007.6
928.51,1011.6
930.29,991.8
932.08,1002.4
933.86,992.0
935.65,1003.8
937.43,991.0
939.21,1008.4
940.99,1009.0
942.77,998.8
944.55,1022.0
946.33,1004.6
948.11,1027.8
949.88,1018.6
951.66,1026.8
953.43,1010.6
955.21,1010.8
956.98,998.0
958.75,971.2
960.52,961.2
962.29,977.4
964.06,964.0
965.82,951.8
967.59,933.2
969.36,925.0
971.12,925.8
972.88,917.4
974.65,929.6
976.41,938.6
978.17,927.4
979.93,939.4
981.69,932.4
983.45,954.6
985.2,928.8
986.96,947.6
988.71,940.8
990.47,949.0
992.22,946.0
993.97,947.2
995.72,947.0
997.47,949.0
999.22,996.8
1000.97,1015.8
1002.72,1008.6
1004.46,1006.8
1006.21,984.2
1007.95,961.6
1009.7,943.2
1011.44,950.2
1013.18,932.2
1014.92,929.4
1016.66,948.4
1018.4,968.2
1020.13,948.6
1021.87,947.0
1023.61,958.8
1025.34,953.0
1027.07,946.4
1028.81,946.8
1030.54,969.0
1032.27,956.8
1034.0,957.0
1035.73,955.4
1037.46,972.6
1039.18,980.8
1040.91,984.2
1042.63,966.8
1044.36,980.4
1046.08,983.4
1047.8,993.8
1049.52,994.0
1051.24,985.0
1052.96,996.4
1054.68,997.6
1056.4,991.4
1058.11,1001.2
1059.83,1022.0
1061.54,1009.8
1063.26,1002.4
1064.97,1003.2
1066.68,1006.8
1068.39,1021.2
1070.1,1013.2
1071.81,1019.0
1073.51,1058.8
1075.22,1043.2
1076.93,1058.8
1078.63,1063.8
1080.33,1065.8
1082.04,1089.2
1083.74,1070.4
1085.44,1047.4
1087.14,1067.2
1088.84,1047.0
1090.53,1036.6
1092.23,1015.4
1093.93,1005.4
1095.62,987.4
1097.32,975.8
1099.01,979.4
1100.7,984.2
1102.39,977.4
1104.08,968.2
1105.77,971.2
1107.46,955.2
1109.15,972.4
1110.83,969.6
1112.52,975.8
1114.2,984.6
1115.88,1000.0
1117.57,1018.6
1119.25,1006.8
1120.93,1029.0
1122.61,1011.2
1124.28,985.8
1125.96,968.4
1127.64,975.2
1129.31,952.6
1130.99,931.8
1132.66,904.4
1134.33,896.2
1136.01,884.4
1137.68,850.0
1139.35,877.0
1141.01,845.4
1142.68,865.6
1144.35,857.8
1146.01,847.8
1147.68,865.0
1149.34,870.2
1151.01,853.8
1152.67,855.8
1154.33,864.2
1155.99,837.0
1157.65,835.4
1159.3,826.8
1160.96,824.6
1162.62,795.6
1164.27,797.6
1165.93,798.6
1167.58,752.6
1169.23,762.4
1170.88,766.4
1172.53,752.6
1174.18,751.4
1175.83,734.8
1177.48,738.4
1179.12,745.0
1180.77,729.0
1182.41,722.0
1184.06,720.8
1185.7,733.4
1187.34,708.6
1188.98,722.2
1190.62,707.0
1192.26,709.2
1193.9,736.0
1195.53,730.6
1197.17,732.0
1198.8,736.6
1200.44,712.2
1202.07,752.8
1203.7,743.0
1205.33,722.8
1206.96,745.8
1208.59,739.6
1210.22,737.4
1211.85,726.8
1213.47,732.2
1215.1,726.2
1216.72,718.6
1218.34,729.0
1219.96,724.6
1221.59,730.2
1223.21,737.6
1224.83,745.4
1226.44,731.6
1228.06,757.2
1229.68,743.2
1231.29,751.0
1232.91,765.0
1234.52,771.0
1236.13,763.0
1237.74,772.2
1239.35,767.8
1240.96,770.6
1242.57,781.8
1244.18,791.2
1245.78,795.2
1247.39,795.2
1248.99,806.4
1250.6,819.2
1252.2,811.6
1253.8,818.4
1255.4,831.4
1257.0,811.6
1258.6,837.6
1260.2,817.4
1261.8,835.0
1263.39,843.0
1264.99,831.6
1266.58,807.0
1268.17,811.8
1269.77,808.0
1271.36,779.6
1272.95,778.8
1274.54,765.6
1276.12,744.0
1277.71,746.8
1279.3,741.8
1280.88,721.6
1282.47,719.0
1284.05,717.4
1285.63,729.4
1287.21,721.6
1288.79,698.0
1290.37,708.6
1291.95,726.8
1293.53,713.8
1295.1,695.4
1296.68,692.0
1298.25,706.0
1299.83,714.6
1301.4,702.2
1302.97,709.2
1304.54,705.4
1306.11,707.8
1307.68,722.0
1309.25,733.0
1310.81,716.6
1312.38,745.8
1313.94,756.6
1315.51,735.0
1317.07,746.6
1318.63,714.0
1320.19,731.2
1321.75,729.2
1323.31,733.0
1324.87,721.6
1326.43,716.8
1327.98,733.0
1329.54,730.0
1331.09,729.0
1332.64,732.6
1334.2,736.0
1335.75,720.8
1337.3,734.6
1338.85,727.6
1340.4,712.4
1341.94,705.0
1343.49,690.2
1345.03,707.8
1346.58,704.8
1348.12,699.0
1349.66,690.0
1351.21,681.4
1352.75,678.0
1354.29,661.6
1355.82,669.2
1357.36,671.6
1358.9,674.6
1360.43,669.6
1361.97,654.2
1363.5,661.6
1365.03,647.0
1366.57,644.0
1368.1,645.0
1369.63,642.6
1371.16,652.2
1372.68,641.6
1374.21,637.8
1375.74,630.2
1377.26,634.0
1378.78,644.2
1380.31,631.8
1381.83,619.4
1383.35,634.4
1384.87,619.0
1386.39,614.2
1387.91,604.8
1389.42,616.4
1390.94,609.0
1392.46,586.4
1393.97,619.4
1395.48,591.0
1397.0,601.6
1398.51,590.8
1400.02,616.4
1401.53,582.4
1403.04,590.2
1404.54,579.6
1406.05,593.2
1407.55,577.0
1409.06,575.4
1410.56,580.2
1412.06,557.2
1413.57,587.8
1415.07,570.2
1416.57,583.0
1418.07,558.2
1419.56,572.0
1421.06,581.8
1422.56,571.2
1424.05,566.4
1425.54,566.6
1427.04,565.6
1428.53,559.6
1430.02,562.6
1431.51,565.8
1433.0,550.4
1434.49,561.4
1435.97,558.2
1437.46,583.6
1438.94,568.0
1440.43,577.4
1441.91,585.6
1443.39,602.2
1444.88,592.2
1446.36,609.8
1447.83,613.4
1449.31,603.0
1450.79,602.0
1452.27,592.2
1453.74,607.4
1455.22,605.4
1456.69,600.6
1458.16,616.4
1459.63,609.0
1461.1,605.0
1462.57,605.0
1464.04,593.8
1465.51,596.8
1466.98,573.4
1468.44,567.2
1469.91,554.2
1471.37,550.6
1472.83,534.6
1474.3,521.4
1475.76,497.4
1477.22,492.8
1478.67,486.6
1480.13,485.2
1481.59,472.8
1483.05,458.8
1484.5,445.8
1485.95,440.4
1487.41,429.6
1488.86,439.8
1490.31,410.8
1491.76,437.2
1493.21,433.2
1494.66,426.0
1496.11,423.8
1497.55,408.6
1499.0,420.0
1500.44,410.6
1501.88,425.8
1503.33,397.2
1504.77,408.8
1506.21,408.4
1507.65,406.2
1509.09,402.4
1510.52,419.8
1511.96,421.4
1513.4,390.2
1514.83,389.8
1516.26,421.4
1517.7,403.2
1519.13,384.2
1520.56,414.0
1521.99,413.2
1523.42,401.4
1524.85,404.0
1526.27,401.0
1527.7,397.0
1529.12,410.8
1530.55,413.8
1531.97,411.4
1533.39,391.4
1534.81,396.4
1536.23,391.8
1537.65,415.4
1539.07,411.6
1540.49,403.0
1541.9,413.2
1543.32,398.8
1544.73,413.0
1546.15,438.0
1547.56,405.6
1548.97,419.8
1550.38,438.0
1551.79,453.2
1553.2,453.4
1554.61,473.6
1556.01,473.6
1557.42,469.0
1558.82,445.8
1560.22,429.6
1561.63,437.6
1563.03,426.2
1564.43,433.4
1565.83,428.4
1567.23,443.6
1568.63,427.6
1570.02,432.0
1571.42,438.0
1572.81,452.0
1574.21,438.8
1575.6,447.4
1576.99,437.6
1578.38,457.8
1579.77,457.8
1581.16,458.8
1582.55,463.0
1583.94,448.8
1585.32,477.4
1586.71,470.2
1588.09,477.4
1589.47,485.4
1590.86,509.0
1592.24,500.4
1593.62,493.8
1595.0,505.2
1596.38,506.4
1597.75,508.0
1599.13,510.2
1600.51,521.8
1601.88,530.0
1603.25,532.4
1604.63,549.0
1606.0,545.4
1607.37,545.8
1608.74,544.4
1610.11,560.2
1611.47,570.8
1612.84,571.2
1614.21,578.0
1615.57,583.8
1616.93,570.6
1618.3,595.0
1619.66,591.6
1621.02,607.2
1622.38,583.2
1623.74,584.6
1625.1,584.8
1626.45,578.2
1627.81,591.4
1629.16,580.6
1630.52,581.0
1631.87,613.0
1633.22,606.8
1634.57,614.4
1635.92,597.6
1637.27,607.0
1638.62,623.2
1639.97,605.0
1641.32,607.2
1642.66,607.6
1644.01,594.4
1645.35,609.0
1646.69,602.4
1648.03,603.0
1649.37,591.4
1650.71,604.2
1652.05,581.0
1653.39,608.4
1654.73,591.2
1656.06,586.6
1657.4,581.6
1658.73,583.6
1660.06,571.6
1661.39,571.4
1662.72,563.0
1664.05,568.8
1665.38,579.2
1666.71,558.0
1668.04,555.0
1669.36,540.0
1670.69,525.6
1672.01,524.6
1673.34,512.2
1674.66,506.2
1675.98,500.8
1677.3,491.4
1678.62,488.4
1679.94,474.4
1681.25,446.2
1682.57,441.8
1683.88,449.0
1685.2,435.8
1686.51,421.6
1687.82,433.8
1689.14,425.4
1690.45,410.2
1691.76,400.2
1693.06,391.2
1694.37,383.4
1695.68,343.0
1696.98,354.8
1698.29,366.0
1699.59,338.6
1700.89,331.2
1702.2,316.4
1703.5,326.6
1704.8,328.4
1706.1,315.0
1707.39,298.8
1708.69,298.6
1709.99,298.6
1711.28,279.8
1712.57,277.6
1713.87,268.8
1715.16,276.6
1716.45,288.0
1717.74,273.6
1719.03,264.2
1720.32,254.4
1721.6,248.4
1722.89,254.2
1724.18,256.8
1725.46,237.0
1726.74,230.8
1728.03,228.6
1729.31,231.6
1730.59,241.0
1731.87,239.2
1733.15,242.4
1734.42,197.4
1735.7,218.6
1736.97,243.6
1738.25,219.0
1739.52,206.4
1740.79,202.0
1742.07,205.8
1743.34,204.6
1744.61,202.0
1745.88,208.0
1747.14,192.2
1748.41,193.8
1749.68,199.6
1750.94,198.4
1752.2,196.0
1753.47,206.2
1754.73,186.4
1755.99,171.4
1757.25,187.6
1758.51,199.6
1759.77,188.4
1761.02,168.6
1762.28,151.4
1763.54,180.8
1764.79,181.6
1766.04,157.8
1767.29,160.4
1768.55,166.4
1769.8,175.4
1771.05,168.6
1772.29,171.8
1773.54,159.2
1774.79,147.2
1776.03,161.2
1777.28,174.0
1778.52,167.0
1779.76,160.2
1781.01,167.8
1782.25,161.6
1783.49,151.2
1784.72,158.0
1785.96,167.8
1787.2,148.0
1788.43,159.2
1789.67,132.2
1790.9,159.4
1792.14,166.8
1793.37,146.4
1794.6,137.4
1795.83,127.4
1797.06,130.8
1798.28,141.8
1799.51,134.2
1800.74,149.0
1801.96,157.8
1803.19,147.8
1804.41,133.6
1805.63,150.2
1806.85,137.6
1808.07,141.0
1809.29,158.8
1810.51,138.8
1811.73,120.6
1812.94,135.0
1814.16,132.0
1815.37,122.8
1816.59,150.6
1817.8,133.0
1819.01,132.0
1820.22,107.6
1821.43,127.8
1822.64,139.0
1823.85,134.2
1825.05,118.6
1826.26,124.4
1827.46,131.4
1828.67,125.2
1829.87,127.2
1831.07,120.0
1832.27,130.4
1833.47,119.4
1834.67,124.6
1835.87,131.4
1837.07,125.8
1838.26,130.0
1839.46,108.8
1840.65,101.4
1841.85,123.6
1843.04,129.2
1844.23,122.2
1845.42,135.8
1846.61,122.6
1847.8,114.6
1848.98,112.2
1850.17,128.0
1851.35,119.8
1852.54,132.8
1853.72,120.8
1854.9,114.4
1856.09,98.0
1857.27,119.8
1858.45,102.2
1859.62,114.0
1860.8,116.6
1861.98,136.6
1863.15,126.8
1864.33,110.6
1865.5,103.6
1866.68,98.2
1867.85,110.0
1869.02,117.4
1870.19,118.6
1871.36,113.8
1872.52,117.0
1873.69,97.4
1874.86,108.4
1876.02,106.2
1877.19,115.0
1878.35,98.4
1879.51,95.6
1880.67,119.2
1881.83,117.6
1882.99,102.8
1884.15,107.2
1885.31,92.0
1886.46,118.2
1887.62,112.2
1888.77,97.0
1889.92,104.6
1891.08,98.0
1892.23,108.6
1893.38,109.6
