Wavenumber,Intensities
282.29,2787.0
284.39,2772.4
286.49,2753.6
288.59,2767.8
290.7,2714.6
292.79,2683.0
294.89,2662.2
296.99,2670.6
299.09,2659.6
301.18,2625.8
303.28,2615.4
305.37,2588.0
307.47,2589.6
309.56,2574.4
311.65,2551.4
313.74,2557.2
315.83,2555.8
317.92,2545.0
320.0,2547.6
322.09,2552.4
324.18,2543.4
326.26,2558.4
328.34,2552.0
330.43,2572.8
332.51,2566.6
334.59,2591.0
336.67,2635.4
338.75,2622.0
340.83,2645.6
342.9,2675.4
344.98,2704.4
347.05,2769.8
349.13,2769.8
351.2,2779.8
353.27,2800.2
355.35,2827.8
357.42,2782.8
359.49,2759.6
361.55,2708.6
363.62,2715.4
365.69,2662.4
367.75,2649.4
369.82,2621.0
371.88,2589.4
373.95,2599.6
376.01,2580.2
378.07,2583.0
380.13,2593.4
382.19,2560.6
384.25,2589.6
386.31,2581.2
388.36,2621.4
390.42,2602.4
392.47,2601.6
394.53,2642.4
396.58,2635.0
398.63,2664.2
400.68,2640.2
402.73,2669.8
404.78,2691.2
406.83,2711.8
408.87,2685.2
410.92,2682.6
412.97,2733.0
415.01,2741.2
417.05,2748.0
419.1,2736.0
421.14,2780.8
423.18,2777.8
425.22,2814.6
427.25,2822.8
429.29,2816.8
431.33,2804.4
433.36,2862.6
435.4,2834.0
437.43,2856.8
439.47,2824.8
441.5,2823.0
443.53,2808.8
445.56,2808.0
447.59,2767.4
449.62,2782.4
451.64,2772.2
453.67,2744.4
455.7,2750.8
457.72,2758.2
459.74,2712.8
461.77,2684.6
463.79,2675.0
465.81,2660.6
467.83,2643.4
469.85,2616.4
471.86,2600.2
473.88,2593.4
475.9,2579.2
477.91,2564.0
479.93,2567.4
481.94,2569.8
483.95,2532.0
485.96,2539.4
487.97,2548.6
489.98,2486.2
491.99,2473.2
494.0,2445.6
496.0,2400.4
498.01,2352.4
500.01,2290.6
502.02,2259.2
504.02,2247.8
506.02,2194.4
508.02,2168.0
510.02,2157.2
512.02,2131.8
514.02,2115.0
516.01,2096.8
518.01,2074.0
520.01,2052.0
522.0,2048.0
523.99,2020.0
525.99,1991.8
527.98,1997.8
529.97,1960.8
531.96,1964.8
533.94,1939.2
535.93,1955.4
537.92,1930.4
539.9,1909.4
541.89,1894.8
543.87,1902.4
545.85,1892.2
547.84,1861.6
549.82,1848.2
551.8,1850.6
553.78,1837.8
555.75,1829.2
557.73,1809.2
559.71,1797.0
561.68,1815.0
563.66,1803.6
565.63,1787.6
567.6,1772.6
569.57,1762.0
571.54,1778.4
573.51,1769.0
575.48,1739.0
577.45,1746.4
579.41,1745.2
581.38,1709.8
583.34,1725.2
585.31,1722.4
587.27,1710.8
589.23,1713.8
591.19,1701.8
593.15,1719.2
595.11,1701.6
597.07,1692.4
599.03,1702.2
600.98,1694.0
602.94,1690.0
604.89,1682.2
606.84,1657.4
608.8,1659.4
610.75,1648.8
612.7,1647.0
614.65,1636.6
616.6,1604.6
618.54,1601.6
620.49,1606.8
622.43,1596.4
624.38,1621.4
626.32,1562.8
628.27,1554.0
630.21,1562.6
632.15,1573.4
634.09,1583.0
636.03,1562.6
637.96,1571.6
639.9,1562.0
641.84,1584.0
643.77,1596.2
645.71,1593.0
647.64,1585.8
649.57,1577.6
651.5,1556.2
653.43,1553.0
655.36,1577.4
657.29,1546.2
659.22,1557.4
661.14,1531.8
663.07,1521.0
664.99,1516.0
666.92,1513.2
668.84,1491.2
670.76,1501.0
672.68,1480.8
674.6,1447.2
676.52,1477.6
678.44,1457.6
680.35,1453.4
682.27,1457.6
684.19,1451.2
686.1,1438.4
688.01,1438.4
689.92,1428.4
691.83,1419.8
693.74,1456.6
695.65,1441.6
697.56,1442.0
699.47,1448.0
701.38,1422.0
703.28,1443.8
705.19,1454.4
707.09,1435.0
708.99,1429.0
710.89,1439.2
712.79,1441.2
714.69,1439.0
716.59,1423.0
718.49,1415.4
720.39,1400.0
722.28,1409.6
724.18,1396.6
726.07,1390.0
727.96,1367.8
729.85,1376.6
731.74,1356.0
733.63,1382.8
735.52,1344.4
737.41,1366.4
739.3,1368.8
741.18,1366.6
743.07,1362.0
744.95,1347.4
746.84,1360.0
748.72,1340.8
750.6,1345.8
752.48,1347.0
754.36,1346.6
756.24,1366.8
758.12,1330.4
759.99,1350.8
761.87,1355.4
763.74,1349.2
765.62,1338.2
767.49,1339.4
769.36,1340.8
771.23,1322.0
773.1,1338.8
774.97,1364.4
776.84,1361.2
778.7,1353.2
780.57,1361.4
782.44,1364.2
784.3,1357.4
786.16,1335.4
788.02,1346.0
789.89,1337.6
791.75,1349.0
793.6,1323.4
795.46,1319.0
797.32,1346.4
799.18,1318.8
801.03,1335.0
802.89,1328.2
804.74,1318.2
806.59,1325.4
808.44,1320.4
810.29,1303.8
812.14,1303.0
813.99,1282.8
815.84,1290.2
817.69,1302.0
819.53,1308.4
821.38,1280.8
823.22,1299.6
825.06,1308.4
826.9,1312.8
828.75,1299.2
830.59,1319.8
832.42,1303.0
834.26,1296.8
836.1,1285.0
837.93,1306.8
839.77,1308.4
841.6,1298.6
843.44,1309.0
845.27,1317.4
847.1,1341.4
848.93,1342.8
850.76,1341.2
852.59,1342.6
854.42,1337.2
856.24,1325.4
858.07,1323.8
859.89,1307.8
861.72,1329.8
863.54,1313.8
865.36,1280.6
867.18,1262.8
869.0,1271.0
870.82,1278.6
872.64,1303.6
874.45,1291.4
876.27,1291.0
878.08,1308.4
879.9,1306.4
881.71,1313.2
883.52,1298.4
885.33,1298.8
887.14,1268.2
888.95,1231.2
890.76,1235.2
892.57,1230.4
894.37,1211.2
896.18,1198.2
897.98,1194.6
899.79,1180.2
901.59,1168.6
903.39,1146.0
905.19,1139.2
906.99,1130.8
908.79,1123.0
910.58,1087.4
912.38,1113.2
914.18,1107.2
915.97,1111.8
917.76,1095.6
919.56,1073.6
921.35,1076.8
923.14,1065.4
924.93,1049.6
926.72,1045.6
928.51,1069.4
930.29,1033.0
932.08,1048.2
933.86,1065.0
935.65,1030.0
937.43,1054.0
939.21,1048.8
940.99,1052.4
942.77,1070.6
944.55,1063.6
946.33,1072.0
948.11,1074.4
949.88,1080.2
951.66,1062.4
953.43,1072.8
955.21,1050.8
956.98,1040.8
958.75,1029.0
960.52,1035.0
962.29,1019.6
964.06,1001.8
965.82,992.4
967.59,983.2
969.36,971.8
971.12,978.2
972.88,970.0
974.65,975.0
976.41,985.2
978.17,969.6
979.93,985.6
981.69,995.6
983.45,996.4
985.2,1013.0
986.96,990.8
988.71,970.6
990.47,985.6
992.22,999.8
993.97,989.0
995.72,1010.4
997.47,1009.4
999.22,1066.8
1000.97,1095.0
1002.72,1105.8
1004.46,1105.8
1006.21,1062.8
1007.95,1009.0
1009.7,994.8
1011.44,1007.8
1013.18,997.8
1014.92,1003.0
1016.66,1021.2
1018.4,1014.6
1020.13,1046.4
1021.87,1051.0
1023.61,1026.2
1025.34,1010.0
1027.07,1037.6
1028.81,1035.0
1030.54,1033.4
1032.27,1052.2
1034.0,1063.8
1035.73,1030.4
1037.46,1049.0
1039.18,1038.2
1040.91,1037.4
1042.63,1053.8
1044.36,1048.8
1046.08,1056.2
1047.8,1052.4
1049.52,1065.8
1051.24,1060.8
1052.96,1067.4
1054.68,1082.6
1056.4,1090.6
1058.11,1067.6
1059.83,1093.0
1061.54,1091.8
1063.26,1089.6
1064.97,1110.2
1066.68,1105.0
1068.39,1093.4
1070.1,1095.8
1071.81,1125.2
1073.51,1152.0
1075.22,1154.0
1076.93,1160.2
1078.63,1194.4
1080.33,1190.8
1082.04,1181.8
1083.74,1195.8
1085.44,1186.8
1087.14,1146.6
1088.84,1148.8
1090.53,1112.4
1092.23,1127.2
1093.93,1095.4
1095.62,1097.2
1097.32,1059.0
1099.01,1061.6
1100.7,1050.4
1102.39,1047.2
1104.08,1044.4
1105.77,1028.4
1107.46,1052.6
1109.15,1056.2
1110.83,1069.2
1112.52,1044.4
1114.2,1093.6
1115.88,1103.0
1117.57,1109.4
1119.25,1118.8
1120.93,1126.8
1122.61,1108.0
1124.28,1111.0
1125.96,1078.4
1127.64,1058.4
1129.31,1053.2
1130.99,1029.8
1132.66,989.6
1134.33,958.4
1136.01,952.2
1137.68,934.8
1139.35,937.0
1141.01,920.4
1142.68,913.2
1144.35,906.4
1146.01,926.8
1147.68,905.2
1149.34,919.4
1151.01,914.4
1152.67,941.2
1154.33,919.0
1155.99,902.8
1157.65,908.0
1159.3,899.8
1160.96,870.2
1162.62,847.2
1164.27,852.6
1165.93,836.6
1167.58,818.0
1169.23,810.4
1170.88,811.6
1172.53,803.4
1174.18,785.2
1175.83,797.8
1177.48,770.8
1179.12,770.2
1180.77,754.0
1182.41,751.8
1184.06,741.8
1185.7,750.6
1187.34,731.8
1188.98,739.0
1190.62,753.4
1192.26,751.8
1193.9,758.6
1195.53,769.0
1197.17,758.6
1198.8,757.8
1200.44,779.4
1202.07,761.6
1203.7,769.0
1205.33,789.0
1206.96,773.0
1208.59,787.8
1210.22,776.8
1211.85,766.0
1213.47,788.0
1215.1,758.6
1216.72,765.6
1218.34,739.6
1219.96,762.6
1221.59,754.6
1223.21,777.0
1224.83,764.0
1226.44,800.8
1228.06,793.8
1229.68,782.8
1231.29,792.8
1232.91,802.6
1234.52,811.8
1236.13,810.2
1237.74,834.8
1239.35,831.6
1240.96,854.4
1242.57,860.0
1244.18,864.2
1245.78,875.6
1247.39,866.4
1248.99,863.0
1250.6,862.2
1252.2,862.0
1253.8,875.6
1255.4,888.2
1257.0,893.4
1258.6,893.0
1260.2,891.4
1261.8,893.2
1263.39,889.2
1264.99,912.8
1266.58,888.4
1268.17,886.8
1269.77,878.4
1271.36,858.0
1272.95,830.0
1274.54,830.2
1276.12,823.0
1277.71,811.8
1279.3,797.2
1280.88,776.8
1282.47,769.8
1284.05,782.8
1285.63,750.2
1287.21,758.8
1288.79,764.0
1290.37,752.4
1291.95,760.0
1293.53,745.8
1295.1,739.0
1296.68,744.6
1298.25,748.2
1299.83,760.2
1301.4,764.6
1302.97,760.2
1304.54,772.0
1306.11,771.0
1307.68,801.6
1309.25,768.4
1310.81,780.8
1312.38,797.0
1313.94,787.4
1315.51,801.4
1317.07,804.0
1318.63,779.0
1320.19,785.4
1321.75,792.6
1323.31,790.4
1324.87,782.2
1326.43,785.6
1327.98,789.0
1329.54,778.6
1331.09,804.2
1332.64,773.0
1334.2,791.8
1335.75,773.8
1337.3,779.0
1338.85,805.0
1340.4,779.0
1341.94,777.4
1343.49,788.2
1345.03,777.0
1346.58,751.8
1348.12,749.6
1349.66,750.0
1351.21,732.6
1352.75,734.0
1354.29,720.0
1355.82,719.2
1357.36,713.6
1358.9,713.0
1360.43,703.2
1361.97,696.6
1363.5,716.4
1365.03,703.2
1366.57,707.8
1368.1,691.0
1369.63,701.8
1371.16,678.4
1372.68,685.8
1374.21,681.2
1375.74,686.0
1377.26,686.2
1378.78,675.0
1380.31,666.0
1381.83,662.2
1383.35,666.0
1384.87,661.0
1386.39,653.2
1387.91,647.8
1389.42,651.4
1390.94,666.2
1392.46,631.8
1393.97,648.0
1395.48,635.8
1397.0,627.2
1398.51,618.8
1400.02,644.2
1401.53,628.8
1403.04,615.2
1404.54,630.4
1406.05,631.8
1407.55,639.4
1409.06,628.8
1410.56,621.8
1412.06,619.8
1413.57,612.2
1415.07,615.2
1416.57,624.4
1418.07,619.0
1419.56,620.0
1421.06,611.6
1422.56,621.4
1424.05,595.2
1425.54,596.8
1427.04,620.4
1428.53,586.4
1430.02,587.0
1431.51,598.6
1433.0,611.8
1434.49,605.8
1435.97,595.2
1437.46,607.4
1438.94,610.8
1440.43,610.0
1441.91,641.0
1443.39,624.0
1444.88,611.2
1446.36,665.4
1447.83,655.4
1449.31,678.8
1450.79,672.6
1452.27,652.4
1453.74,677.6
1455.22,667.6
1456.69,675.0
1458.16,667.4
1459.63,654.2
1461.1,655.8
1462.57,647.6
1464.04,654.8
1465.51,642.6
1466.98,644.6
1468.44,615.6
1469.91,614.2
1471.37,594.2
1472.83,548.8
1474.3,552.8
1475.76,536.2
1477.22,518.6
1478.67,511.2
1480.13,497.4
1481.59,483.0
1483.05,485.0
1484.5,453.4
1485.95,445.2
1487.41,436.8
1488.86,428.6
1490.31,438.8
1491.76,423.6
1493.21,423.0
1494.66,407.6
1496.11,423.8
1497.55,412.4
1499.0,440.8
1500.44,419.6
1501.88,418.4
1503.33,416.8
1504.77,407.6
1506.21,420.4
1507.65,399.4
1509.09,420.6
1510.52,427.4
1511.96,396.6
1513.4,406.2
1514.83,432.8
1516.26,403.2
1517.7,410.6
1519.13,416.0
1520.56,394.2
1521.99,403.4
1523.42,386.4
1524.85,400.0
1526.27,403.8
1527.7,403.2
1529.12,412.2
1530.55,401.4
1531.97,405.4
1533.39,395.8
1534.81,412.0
1536.23,410.0
1537.65,426.8
1539.07,396.4
1540.49,409.6
1541.9,416.8
1543.32,413.2
1544.73,427.6
1546.15,416.0
1547.56,435.0
1548.97,432.8
1550.38,428.8
1551.79,477.2
1553.2,449.6
1554.61,466.4
1556.01,463.0
1557.42,474.6
1558.82,450.0
1560.22,426.8
1561.63,427.6
1563.03,413.8
1564.43,400.8
1565.83,419.0
1567.23,441.4
1568.63,434.6
1570.02,447.2
1571.42,423.0
1572.81,438.2
1574.21,435.6
1575.6,437.4
1576.99,418.4
1578.38,445.2
1579.77,444.2
1581.16,460.0
1582.55,464.6
1583.94,449.6
1585.32,479.4
1586.71,461.6
1588.09,470.2
1589.47,465.2
1590.86,471.4
1592.24,475.2
1593.62,486.4
1595.0,504.2
1596.38,497.4
1597.75,505.6
1599.13,514.0
1600.51,514.8
1601.88,528.0
1603.25,514.8
1604.63,526.8
1606.0,552.0
1607.37,552.6
1608.74,555.8
1610.11,560.6
1611.47,567.6
1612.84,559.4
1614.21,562.2
1615.57,581.6
1616.93,586.4
1618.3,588.0
1619.66,587.8
1621.02,586.4
1622.38,595.0
1623.74,570.2
1625.1,587.6
1626.45,585.4
1627.81,576.0
1629.16,590.8
1630.52,611.0
1631.87,588.6
1633.22,588.2
1634.57,616.6
1635.92,609.6
1637.27,594.0
1638.62,596.6
1639.97,608.2
1641.32,606.2
1642.66,617.6
1644.01,601.6
1645.35,604.4
1646.69,598.6
1648.03,614.8
1649.37,604.6
1650.71,587.6
1652.05,592.8
1653.39,588.0
1654.73,598.0
1656.06,590.8
1657.4,590.0
1658.73,587.0
1660.06,569.4
1661.39,579.2
1662.72,574.8
1664.05,577.6
1665.38,562.8
1666.71,569.0
1668.04,546.0
1669.36,543.8
1670.69,534.2
1672.01,526.8
1673.34,521.4
1674.66,520.2
1675.98,509.0
1677.3,482.2
1678.62,478.8
1679.94,483.4
1681.25,471.4
1682.57,462.4
1683.88,448.4
1685.2,435.0
1686.51,432.2
1687.82,410.0
1689.14,407.2
1690.45,398.4
1691.76,380.8
1693.06,377.4
1694.37,376.0
1695.68,368.2
1696.98,356.2
1698.29,335.6
1699.59,343.2
1700.89,315.8
1702.2,318.2
1703.5,331.0
1704.8,314.2
1706.1,298.4
1707.39,313.0
1708.69,303.0
1709.99,285.4
1711.28,293.0
1712.57,271.8
1713.87,273.6
1715.16,274.2
1716.45,281.0
1717.74,267.4
1719.03,256.6
1720.32,258.2
1721.6,254.4
1722.89,239.6
1724.18,243.8
1725.46,247.6
1726.74,244.6
1728.03,247.8
1729.31,243.8
1730.59,218.0
1731.87,233.0
1733.15,221.2
1734.42,224.8
1735.7,212.4
1736.97,209.6
1738.25,219.4
1739.52,209.4
1740.79,202.0
1742.07,189.8
1743.34,191.2
1744.61,205.2
1745.88,195.2
1747.14,201.2
1748.41,201.2
1749.68,189.2
1750.94,197.0
1752.2,200.2
1753.47,210.2
1754.73,178.2
1755.99,189.2
1757.25,188.6
1758.51,186.6
1759.77,177.8
1761.02,185.8
1762.28,179.2
1763.54,161.0
1764.79,174.0
1766.04,169.6
1767.29,167.0
1768.55,175.8
1769.8,156.6
1771.05,170.4
1772.29,164.6
1773.54,152.8
1774.79,162.6
1776.03,159.4
1777.28,161.4
1778.52,161.0
1779.76,155.4
1781.01,167.8
1782.25,162.0
1783.49,162.6
1784.72,159.6
1785.96,156.4
1787.2,157.2
1788.43,154.8
1789.67,117.8
1790.9,152.6
1792.14,141.6
1793.37,155.6
1794.6,157.0
1795.83,133.8
1797.06,152.8
1798.28,144.4
1799.51,128.6
1800.74,140.2
1801.96,152.4
1803.19,127.6
1804.41,134.2
1805.63,148.2
1806.85,131.2
1808.07,147.4
1809.29,130.6
1810.51,135.2
1811.73,119.0
1812.94,128.4
1814.16,128.4
1815.37,142.8
1816.59,129.0
1817.8,141.4
1819.01,135.4
1820.22,137.4
1821.43,131.4
1822.64,140.0
1823.85,139.0
1825.05,124.4
1826.26,128.2
1827.46,110.6
1828.67,126.0
1829.87,132.6
1831.07,121.4
1832.27,126.6
1833.47,132.6
1834.67,132.4
1835.87,122.6
1837.07,133.2
1838.26,137.0
1839.46,109.4
1840.65,125.0
1841.85,119.8
1843.04,114.2
1844.23,104.6
1845.42,137.4
1846.61,108.8
1847.8,115.4
1848.98,113.4
1850.17,118.2
1851.35,113.8
1852.54,102.2
1853.72,117.8
1854.9,120.6
1856.09,135.4
1857.27,111.8
1858.45,112.0
1859.62,120.4
1860.8,110.0
1861.98,117.6
1863.15,107.2
1864.33,101.8
1865.5,114.8
1866.68,120.0
1867.85,99.6
1869.02,120.0
1870.19,119.0
1871.36,102.4
1872.52,111.4
1873.69,112.8
1874.86,120.6
1876.02,98.8
1877.19,102.2
1878.35,118.6
1879.51,106.4
1880.67,115.8
1881.83,111.8
1882.99,107.0
1884.15,108.8
1885.31,122.8
1886.46,107.6
1887.62,104.4
1888.77,105.6
1889.92,97.8
1891.08,104.6
1892.23,108.4
1893.38,102.8
