Wavenumber,Intensities
282.29,2895.4
284.39,2863.8
286.49,2866.4
288.59,2834.2
290.7,2805.2
292.79,2802.8
294.89,2770.2
296.99,2773.2
299.09,2710.4
301.18,2729.8
303.28,2706.6
305.37,2722.2
307.47,2683.6
309.56,2680.0
311.65,2689.2
313.74,2672.4
315.83,2650.4
317.92,2676.2
320.0,2643.4
322.09,2655.0
324.18,2675.2
326.26,2675.2
328.34,2706.8
330.43,2689.4
332.51,2692.8
334.59,2733.8
336.67,2767.2
338.75,2760.2
340.83,2788.2
342.9,2832.6
344.98,2866.2
347.05,2929.8
349.13,2959.8
351.2,2987.6
353.27,2979.2
355.35,2956.2
357.42,2950.4
359.49,2925.6
361.55,2837.6
363.62,2832.4
365.69,2798.6
367.75,2765.8
369.82,2749.8
371.88,2728.6
373.95,2705.8
376.01,2693.0
378.07,2688.8
380.13,2696.0
382.19,2714.4
384.25,2713.2
386.31,2721.6
388.36,2716.8
390.42,2715.0
392.47,2711.4
394.53,2738.8
396.58,2751.4
398.63,2770.8
400.68,2776.6
402.73,2777.8
404.78,2796.0
406.83,2799.6
408.87,2804.4
410.92,2823.4
412.97,2800.6
415.01,2823.6
417.05,2882.6
419.1,2895.8
421.14,2909.2
423.18,2915.2
425.22,2925.8
427.25,2919.8
429.29,2947.2
431.33,2931.2
433.36,2965.2
435.4,2970.0
437.43,2969.0
439.47,2969.2
441.5,2973.8
443.53,2933.4
445.56,2908.0
447.59,2924.2
449.62,2900.2
451.64,2881.8
453.67,2895.0
455.7,2886.2
457.72,2820.6
459.74,2819.6
461.77,2817.6
463.79,2811.0
465.81,2772.6
467.83,2773.0
469.85,2741.8
471.86,2709.6
473.88,2721.6
475.9,2680.8
477.91,2667.2
479.93,2679.6
481.94,2643.8
483.95,2632.0
485.96,2604.4
487.97,2621.0
489.98,2568.4
491.99,2581.0
494.0,2496.8
496.0,2461.4
498.01,2447.6
500.01,2386.4
502.02,2341.2
504.02,2340.4
506.02,2297.2
508.02,2296.4
510.02,2247.2
512.02,2218.2
514.02,2212.6
516.01,2161.6
518.01,2182.4
520.01,2141.6
522.0,2124.6
523.99,2072.2
525.99,2063.0
527.98,2073.0
529.97,2081.8
531.96,2047.0
533.94,2059.4
535.93,2029.0
537.92,2027.0
539.9,2006.8
541.89,1970.6
543.87,1949.4
545.85,1936.4
547.84,1921.0
549.82,1904.0
551.8,1913.0
553.78,1912.8
555.75,1880.6
557.73,1883.8
559.71,1867.2
561.68,1869.0
563.66,1867.4
565.63,1864.4
567.6,1872.0
569.57,1831.8
571.54,1848.4
573.51,1840.0
575.48,1825.0
577.45,1834.8
579.41,1813.8
581.38,1796.4
583.34,1785.4
585.31,1773.2
587.27,1792.4
589.23,1778.6
591.19,1785.2
593.15,1755.8
595.11,1769.8
597.07,1786.2
599.03,1774.0
600.98,1784.0
602.94,1769.2
604.89,1742.4
606.84,1723.0
608.8,1725.0
610.75,1720.8
612.7,1706.4
614.65,1689.0
616.6,1699.2
618.54,1676.6
620.49,1674.8
622.43,1667.8
624.38,1651.4
626.32,1659.2
628.27,1632.0
630.21,1648.0
632.15,1623.2
634.09,1628.0
636.03,1607.4
637.96,1601.8
639.9,1650.2
641.84,1644.0
643.77,1663.8
645.71,1673.0
647.64,1639.0
649.57,1670.4
651.5,1645.8
653.43,1625.0
655.36,1629.0
657.29,1583.4
659.22,1590.6
661.14,1579.8
663.07,1579.2
664.99,1570.4
666.92,1576.8
668.84,1542.2
670.76,1553.6
672.68,1556.6
674.6,1529.2
676.52,1521.0
678.44,1532.2
680.35,1502.2
682.27,1517.8
684.19,1495.2
686.1,1489.2
688.01,1505.0
689.92,1510.8
691.83,1540.0
693.74,1506.4
695.65,1486.8
697.56,1496.0
699.47,1537.6
701.38,1507.6
703.28,1519.8
705.19,1521.2
707.09,1514.0
708.99,1518.2
710.89,1514.8
712.79,1517.0
714.69,1501.4
716.59,1505.2
718.49,1473.8
720.39,1465.4
722.28,1462.6
724.18,1460.8
726.07,1447.8
727.96,1442.0
729.85,1428.6
731.74,1427.6
733.63,1438.4
735.52,1425.4
737.41,1424.2
739.3,1404.0
741.18,1408.6
743.07,1424.6
744.95,1433.0
746.84,1421.6
748.72,1414.8
750.6,1412.0
752.48,1410.6
754.36,1421.0
756.24,1407.2
758.12,1413.0
759.99,1405.6
761.87,1413.0
763.74,1393.0
765.62,1400.4
767.49,1394.8
769.36,1407.2
771.23,1398.6
773.1,1398.0
774.97,1408.6
776.84,1414.6
778.7,1404.2
780.57,1400.6
782.44,1418.6
784.3,1407.4
786.16,1395.0
788.02,1418.2
789.89,1411.2
791.75,1381.6
793.6,1396.2
795.46,1391.8
797.32,1380.2
799.18,1396.4
801.03,1387.0
802.89,1380.2
804.74,1376.2
806.59,1372.8
808.44,1353.2
810.29,1375.0
812.14,1348.4
813.99,1350.2
815.84,1372.4
817.69,1359.0
819.53,1354.8
821.38,1373.0
823.22,1355.6
825.06,1395.0
826.9,1376.0
828.75,1389.0
830.59,1383.4
832.42,1380.8
834.26,1377.2
836.1,1370.6
837.93,1379.8
839.77,1380.6
841.6,1382.8
843.44,1399.6
845.27,1390.6
847.1,1406.2
848.93,1419.6
850.76,1428.8
852.59,1456.8
854.42,1423.0
856.24,1433.2
858.07,1424.2
859.89,1426.8
861.72,1406.4
863.54,1409.0
865.36,1397.8
867.18,1388.2
869.0,1383.4
870.82,1381.4
872.64,1397.4
874.45,1397.0
876.27,1417.8
878.08,1427.0
879.9,1438.2
881.71,1431.2
883.52,1427.6
885.33,1403.2
887.14,1372.4
888.95,1355.4
890.76,1337.0
892.57,1328.2
894.37,1328.0
896.18,1307.2
897.98,1303.8
899.79,1286.6
901.59,1266.4
903.39,1250.8
905.19,1227.8
906.99,1216.4
908.79,1214.2
910.58,1201.4
912.38,1199.8
914.18,1167.8
915.97,1163.2
917.76,1178.4
919.56,1171.0
921.35,1192.0
923.14,1158.6
924.93,1155.6
926.72,1158.0
928.51,1138.4
930.29,1157.0
932.08,1142.0
933.86,1156.8
935.65,1108.6
937.43,1130.6
939.21,1150.4
940.99,1168.8
942.77,1176.2
944.55,1157.6
946.33,1158.6
948.11,1174.0
949.88,1200.0
951.66,1167.0
953.43,1181.2
955.21,1156.4
956.98,1148.0
958.75,1134.4
960.52,1129.8
962.29,1110.2
964.06,1086.4
965.82,1079.6
967.59,1051.0
969.36,1068.4
971.12,1059.0
972.88,1039.6
974.65,1085.8
976.41,1052.6
978.17,1065.4
979.93,1076.2
981.69,1087.2
983.45,1096.4
985.2,1079.4
986.96,1070.6
988.71,1094.2
990.47,1102.6
992.22,1093.6
993.97,1082.6
995.72,1113.2
997.47,1105.4
999.22,1155.8
1000.97,1206.4
1002.72,1223.6
1004.46,1224.8
1006.21,1193.2
1007.95,1125.8
1009.7,1122.4
1011.44,1097.8
1013.18,1119.6
1014.92,1112.6
1016.66,1131.4
1018.4,1131.6
1020.13,1137.2
1021.87,1160.4
1023.61,1131.4
1025.34,1135.0
1027.07,1126.0
1028.81,1139.8
1030.54,1131.8
1032.27,1153.4
1034.0,1147.6
1035.73,1155.2
1037.46,1158.2
1039.18,1138.4
1040.91,1163.4
1042.63,1168.0
1044.36,1162.6
1046.08,1169.2
1047.8,1199.8
1049.52,1200.6
1051.24,1196.2
1052.96,1182.4
1054.68,1194.4
1056.4,1195.4
1058.11,1202.0
1059.83,1224.6
1061.54,1208.8
1063.26,1246.2
1064.97,1201.8
1066.68,1226.8
1068.39,1227.2
1070.1,1262.8
1071.81,1254.2
1073.51,1286.0
1075.22,1303.2
1076.93,1325.6
1078.63,1304.2
1080.33,1318.4
1082.04,1340.2
1083.74,1330.2
1085.44,1330.4
1087.14,1310.6
1088.84,1274.8
1090.53,1254.4
1092.23,1231.8
1093.93,1236.0
1095.62,1223.4
1097.32,1196.0
1099.01,1203.4
1100.7,1199.0
1102.39,1164.2
1104.08,1177.8
1105.77,1169.2
1107.46,1172.4
1109.15,1172.4
1110.83,1200.0
1112.52,1197.4
1114.2,1218.6
1115.88,1247.8
1117.57,1240.8
1119.25,1256.0
1120.93,1267.6
1122.61,1253.6
1124.28,1244.8
1125.96,1234.8
1127.64,1208.4
1129.31,1164.8
1130.99,1149.0
1132.66,1095.0
1134.33,1098.8
1136.01,1061.0
1137.68,1051.0
1139.35,1022.8
1141.01,1030.4
1142.68,1013.2
1144.35,997.2
1146.01,1030.6
1147.68,1023.6
1149.34,1025.2
1151.01,1028.4
1152.67,1025.0
1154.33,1016.8
1155.99,997.8
1157.65,990.0
1159.3,992.0
1160.96,974.0
1162.62,941.8
1164.27,921.0
1165.93,927.2
1167.58,905.8
1169.23,901.2
1170.88,887.0
1172.53,861.4
1174.18,863.4
1175.83,857.6
1177.48,856.6
1179.12,811.4
1180.77,833.0
1182.41,802.8
1184.06,812.6
1185.7,815.4
1187.34,793.8
1188.98,802.6
1190.62,816.8
1192.26,813.4
1193.9,811.8
1195.53,818.6
1197.17,808.8
1198.8,814.8
1200.44,841.4
1202.07,858.2
1203.7,855.4
1205.33,872.0
1206.96,857.4
1208.59,858.0
1210.22,847.0
1211.85,840.2
1213.47,809.4
1215.1,827.6
1216.72,828.4
1218.34,830.6
1219.96,841.4
1221.59,831.2
1223.21,835.0
1224.83,855.8
1226.44,845.0
1228.06,865.6
1229.68,866.4
1231.29,872.6
1232.91,893.0
1234.52,906.0
1236.13,907.6
1237.74,896.0
1239.35,919.8
1240.96,924.2
1242.57,936.4
1244.18,956.8
1245.78,955.6
1247.39,953.0
1248.99,960.2
1250.6,969.4
1252.2,984.0
1253.8,978.6
1255.4,987.6
1257.0,993.0
1258.6,1011.4
1260.2,1005.8
1261.8,1008.4
1263.39,1019.0
1264.99,1000.4
1266.58,986.4
1268.17,990.0
1269.77,955.4
1271.36,956.0
1272.95,930.8
1274.54,941.6
1276.12,926.2
1277.71,890.4
1279.3,877.6
1280.88,888.6
1282.47,853.4
1284.05,852.8
1285.63,840.8
1287.21,839.6
1288.79,836.4
1290.37,841.8
1291.95,833.0
1293.53,823.4
1295.1,822.8
1296.68,815.4
1298.25,839.8
1299.83,843.8
1301.4,856.0
1302.97,831.6
1304.54,862.8
1306.11,861.6
1307.68,853.6
1309.25,869.6
1310.81,868.6
1312.38,882.2
1313.94,879.4
1315.51,886.0
1317.07,873.4
1318.63,879.4
1320.19,893.2
1321.75,895.2
1323.31,880.0
1324.87,863.4
1326.43,879.4
1327.98,877.8
1329.54,861.8
1331.09,860.0
1332.64,872.8
1334.2,873.2
1335.75,866.6
1337.3,869.6
1338.85,883.4
1340.4,881.8
1341.94,857.8
1343.49,852.6
1345.03,861.0
1346.58,826.4
1348.12,818.0
1349.66,808.8
1351.21,802.8
1352.75,814.4
1354.29,804.8
1355.82,802.8
1357.36,799.6
1358.9,797.0
1360.43,798.0
1361.97,783.6
1363.5,797.2
1365.03,789.0
1366.57,773.0
1368.1,770.0
1369.63,771.2
1371.16,774.2
1372.68,775.6
1374.21,760.2
1375.74,777.8
1377.26,754.2
1378.78,759.6
1380.31,766.8
1381.83,754.6
1383.35,745.6
1384.87,720.0
1386.39,725.2
1387.91,723.2
1389.42,717.0
1390.94,720.0
1392.46,723.4
1393.97,715.4
1395.48,708.6
1397.0,693.8
1398.51,698.2
1400.02,707.2
1401.53,707.8
1403.04,687.6
1404.54,708.6
1406.05,682.8
1407.55,696.2
1409.06,675.8
1410.56,701.0
1412.06,679.6
1413.57,661.2
1415.07,679.0
1416.57,673.2
1418.07,673.6
1419.56,674.4
1421.06,659.8
1422.56,666.8
1424.05,674.4
1425.54,655.6
1427.04,667.6
1428.53,660.4
1430.02,652.4
1431.51,641.0
1433.0,656.6
1434.49,657.6
1435.97,666.2
1437.46,670.6
1438.94,683.6
1440.43,682.6
1441.91,685.6
1443.39,697.8
1444.88,712.4
1446.36,730.6
1447.83,729.2
1449.31,753.8
1450.79,752.6
1452.27,747.4
1453.74,730.8
1455.22,737.6
1456.69,752.4
1458.16,744.2
1459.63,737.2
1461.1,727.8
1462.57,738.2
1464.04,717.2
1465.51,729.6
1466.98,692.4
1468.44,690.0
1469.91,664.8
1471.37,653.6
1472.83,630.8
1474.3,611.2
1475.76,580.8
1477.22,567.4
1478.67,540.8
1480.13,530.4
1481.59,502.2
1483.05,505.6
1484.5,504.2
1485.95,485.2
1487.41,462.4
1488.86,463.4
1490.31,454.4
1491.76,474.8
1493.21,468.4
1494.66,444.8
1496.11,462.2
1497.55,453.4
1499.0,444.2
1500.44,444.2
1501.88,440.4
1503.33,433.0
1504.77,446.4
1506.21,448.8
1507.65,422.2
1509.09,435.2
1510.52,435.8
1511.96,417.4
1513.4,417.4
1514.83,423.0
1516.26,415.6
1517.7,419.8
1519.13,428.8
1520.56,425.8
1521.99,416.8
1523.42,429.8
1524.85,420.6
1526.27,429.2
1527.7,429.2
1529.12,429.8
1530.55,425.2
1531.97,421.6
1533.39,422.0
1534.81,429.2
1536.23,430.6
1537.65,432.6
1539.07,432.4
1540.49,436.2
1541.9,438.2
1543.32,458.8
1544.73,431.8
1546.15,434.2
1547.56,430.8
1548.97,452.8
1550.38,470.4
1551.79,477.8
1553.2,493.4
1554.61,499.6
1556.01,503.6
1557.42,471.4
1558.82,468.4
1560.22,449.6
1561.63,454.2
1563.03,442.8
1564.43,427.2
1565.83,434.8
1567.23,450.4
1568.63,446.2
1570.02,450.2
1571.42,453.6
1572.81,450.4
1574.21,459.0
1575.6,446.4
1576.99,451.6
1578.38,464.8
1579.77,482.8
1581.16,473.2
1582.55,467.8
1583.94,486.8
1585.32,478.4
1586.71,490.6
1588.09,490.0
1589.47,479.8
1590.86,480.0
1592.24,511.8
1593.62,494.8
1595.0,517.4
1596.38,523.0
1597.75,538.2
1599.13,535.2
1600.51,543.2
1601.88,545.6
1603.25,559.8
1604.63,569.8
1606.0,560.4
1607.37,548.2
1608.74,556.6
1610.11,564.8
1611.47,583.0
1612.84,602.8
1614.21,580.4
1615.57,598.0
1616.93,590.0
1618.3,596.4
1619.66,595.4
1621.02,611.2
1622.38,605.2
1623.74,585.4
1625.1,586.0
1626.45,607.4
1627.81,605.8
1629.16,591.6
1630.52,616.4
1631.87,622.0
1633.22,624.2
1634.57,629.6
1635.92,603.6
1637.27,621.2
1638.62,631.6
1639.97,612.6
1641.32,616.6
1642.66,603.8
1644.01,619.2
1645.35,624.0
1646.69,619.4
1648.03,618.2
1649.37,620.0
1650.71,618.2
1652.05,615.4
1653.39,611.8
1654.73,629.6
1656.06,616.0
1657.4,610.6
1658.73,616.6
1660.06,603.8
1661.39,606.4
1662.72,604.6
1664.05,589.6
1665.38,571.8
1666.71,583.8
1668.04,575.0
1669.36,564.2
1670.69,548.4
1672.01,552.2
1673.34,543.8
1674.66,545.0
1675.98,536.2
1677.3,508.8
1678.62,513.4
1679.94,489.8
1681.25,489.0
1682.57,482.0
1683.88,466.8
1685.2,459.6
1686.51,446.0
1687.82,425.2
1689.14,428.4
1690.45,422.8
1691.76,401.6
1693.06,399.6
1694.37,373.6
1695.68,373.8
1696.98,367.6
1698.29,348.4
1699.59,363.4
1700.89,336.4
1702.2,349.8
1703.5,339.6
1704.8,325.8
1706.1,291.6
1707.39,310.4
1708.69,298.4
1709.99,294.4
1711.28,298.4
1712.57,281.0
1713.87,289.8
1715.16,302.4
1716.45,265.6
1717.74,278.8
1719.03,266.8
1720.32,281.0
1721.6,264.4
1722.89,263.6
1724.18,256.8
1725.46,245.6
1726.74,242.0
1728.03,252.2
1729.31,250.8
1730.59,234.2
1731.87,243.6
1733.15,238.0
1734.42,234.4
1735.7,223.2
1736.97,222.2
1738.25,211.2
1739.52,216.4
1740.79,218.8
1742.07,225.6
1743.34,212.0
1744.61,218.4
1745.88,203.0
1747.14,207.2
1748.41,190.0
1749.68,204.4
1750.94,194.6
1752.2,206.8
1753.47,201.4
1754.73,196.0
1755.99,203.8
1757.25,166.4
1758.51,186.0
1759.77,194.8
1761.02,199.0
1762.28,194.6
1763.54,180.0
1764.79,186.6
1766.04,191.4
1767.29,189.6
1768.55,173.0
1769.8,186.6
1771.05,173.2
1772.29,186.6
1773.54,177.8
1774.79,162.8
1776.03,165.0
1777.28,178.0
1778.52,173.4
1779.76,163.4
1781.01,171.8
1782.25,161.0
1783.49,161.2
1784.72,168.6
1785.96,167.0
1787.2,169.4
1788.43,154.2
1789.67,168.6
1790.9,151.8
1792.14,160.8
1793.37,155.2
1794.6,147.2
1795.83,156.6
1797.06,145.0
1798.28,158.6
1799.51,152.6
1800.74,161.8
1801.96,153.2
1803.19,143.6
1804.41,154.8
1805.63,157.0
1806.85,146.2
1808.07,154.4
1809.29,155.0
1810.51,152.6
1811.73,145.6
1812.94,137.8
1814.16,141.0
1815.37,134.4
1816.59,134.4
1817.8,126.8
1819.01,143.8
1820.22,129.6
1821.43,117.0
1822.64,120.6
1823.85,125.2
1825.05,136.0
1826.26,146.0
1827.46,126.4
1828.67,145.0
1829.87,124.2
1831.07,130.4
1832.27,139.0
1833.47,128.0
1834.67,134.0
1835.87,149.4
1837.07,117.2
1838.26,114.0
1839.46,117.6
1840.65,140.6
1841.85,122.0
1843.04,127.0
1844.23,131.4
1845.42,133.0
1846.61,146.0
1847.8,123.8
1848.98,128.8
1850.17,129.0
1851.35,120.2
1852.54,122.2
1853.72,116.2
1854.9,137.2
1856.09,126.2
1857.27,129.2
1858.45,111.6
1859.62,127.6
1860.8,108.8
1861.98,115.8
1863.15,126.8
1864.33,119.2
1865.5,108.0
1866.68,116.2
1867.85,126.2
1869.02,121.4
1870.19,130.0
1871.36,137.8
1872.52,115.8
1873.69,133.0
1874.86,95.4
1876.02,114.0
1877.19,113.4
1878.35,104.0
1879.51,120.0
1880.67,108.8
1881.83,124.2
1882.99,114.8
1884.15,104.6
1885.31,118.6
1886.46,122.4
1887.62,119.4
1888.77,108.6
1889.92,110.2
1891.08,112.6
1892.23,116.0
1893.38,108.8
