Wavenumber,Intensities
282.29,15646.8
284.39,15473.2
286.49,15426.4
288.59,15279.0
290.7,15179.0
292.79,15113.0
294.89,14985.6
296.99,14859.6
299.09,14740.6
301.18,14696.0
303.28,14585.8
305.37,14542.6
307.47,14508.6
309.56,14519.6
311.65,14477.8
313.74,14504.6
315.83,14439.2
317.92,14417.4
320.0,14402.2
322.09,14367.2
324.18,14396.6
326.26,14340.8
328.34,14313.6
330.43,14326.4
332.51,14241.2
334.59,14200.2
336.67,14108.4
338.75,14129.4
340.83,14042.2
342.9,13974.8
344.98,13998.0
347.05,13942.2
349.13,13976.4
351.2,13902.8
353.27,13940.4
355.35,13844.8
357.42,13749.8
359.49,13740.0
361.55,13680.2
363.62,13682.6
365.69,13626.2
367.75,13651.8
369.82,13672.0
371.88,13668.8
373.95,13633.2
376.01,13612.6
378.07,13614.0
380.13,13534.0
382.19,13506.0
384.25,13530.0
386.31,13505.0
388.36,13477.4
390.42,13550.4
392.47,13525.8
394.53,13589.4
396.58,13647.0
398.63,13701.4
400.68,13826.0
402.73,13799.4
404.78,13877.8
406.83,13871.0
408.87,13943.0
410.92,13924.6
412.97,13954.2
415.01,13982.2
417.05,14024.6
419.1,14064.2
421.14,14035.0
423.18,14083.2
425.22,14072.8
427.25,14109.8
429.29,14068.0
431.33,14009.0
433.36,13961.6
435.4,13982.4
437.43,13967.0
439.47,13948.6
441.5,13942.2
443.53,13904.4
445.56,13905.0
447.59,13869.2
449.62,13889.8
451.64,13843.6
453.67,13812.2
455.7,13799.4
457.72,13788.0
459.74,13776.0
461.77,13677.8
463.79,13689.0
465.81,13629.2
467.83,13620.0
469.85,13625.4
471.86,13633.0
473.88,13635.6
475.9,13600.6
477.91,13589.0
479.93,13620.0
481.94,13646.2
483.95,13647.6
485.96,13668.8
487.97,13711.0
489.98,13778.4
491.99,13812.4
494.0,13857.0
496.0,13886.4
498.01,13978.0
500.01,14020.4
502.02,14157.8
504.02,14177.0
506.02,14238.6
508.02,14214.8
510.02,14156.2
512.02,14071.2
514.02,13879.6
516.01,13783.6
518.01,13671.0
520.01,13603.8
522.0,13505.0
523.99,13538.2
525.99,13477.2
527.98,13468.0
529.97,13433.6
531.96,13364.4
533.94,13359.4
535.93,13354.2
537.92,13336.8
539.9,13328.8
541.89,13266.6
543.87,13311.8
545.85,13313.4
547.84,13356.6
549.82,13302.6
551.8,13321.4
553.78,13302.4
555.75,13325.4
557.73,13277.6
559.71,13268.6
561.68,13193.6
563.66,13153.0
565.63,13075.6
567.6,12980.0
569.57,12943.6
571.54,12926.8
573.51,12809.8
575.48,12744.4
577.45,12704.0
579.41,12623.6
581.38,12537.8
583.34,12457.4
585.31,12398.6
587.27,12374.2
589.23,12279.0
591.19,12238.2
593.15,12136.4
595.11,12175.8
597.07,12060.2
599.03,11992.8
600.98,11967.0
602.94,11934.8
604.89,11891.8
606.84,11877.6
608.8,11841.0
610.75,11846.0
612.7,11808.6
614.65,11837.8
616.6,11930.6
618.54,12029.2
620.49,12196.6
622.43,12272.8
624.38,12090.6
626.32,11929.0
628.27,11711.0
630.21,11709.6
632.15,11663.0
634.09,11732.6
636.03,11771.2
637.96,11879.0
639.9,12035.2
641.84,12260.0
643.77,12342.6
645.71,12277.6
647.64,12099.2
649.57,12085.6
651.5,12043.6
653.43,12006.4
655.36,12004.6
657.29,11994.0
659.22,12056.0
661.14,12065.8
663.07,12115.8
664.99,12122.4
666.92,12090.4
668.84,12087.4
670.76,12053.2
672.68,11990.6
674.6,11933.8
676.52,11876.0
678.44,11824.4
680.35,11781.2
682.27,11769.0
684.19,11758.4
686.1,11639.8
688.01,11601.6
689.92,11583.8
691.83,11546.8
693.74,11523.6
695.65,11519.6
697.56,11559.6
699.47,11490.4
701.38,11511.4
703.28,11479.6
705.19,11459.0
707.09,11452.0
708.99,11453.2
710.89,11392.2
712.79,11387.6
714.69,11360.8
716.59,11402.0
718.49,11376.8
720.39,11364.2
722.28,11366.0
724.18,11390.6
726.07,11372.4
727.96,11456.2
729.85,11449.2
731.74,11473.8
733.63,11485.2
735.52,11537.2
737.41,11561.0
739.3,11610.2
741.18,11644.2
743.07,11771.6
744.95,11771.2
746.84,11789.2
748.72,11806.0
750.6,11724.6
752.48,11657.6
754.36,11638.4
756.24,11554.8
758.12,11468.8
759.99,11430.8
761.87,11289.6
763.74,11184.6
765.62,11046.6
767.49,10976.2
769.36,10885.8
771.23,10806.6
773.1,10757.4
774.97,10692.6
776.84,10714.4
778.7,10661.6
780.57,10708.0
782.44,10687.6
784.3,10709.0
786.16,10761.0
788.02,10783.6
789.89,10774.2
791.75,10757.4
793.6,10794.4
795.46,10866.6
797.32,10871.2
799.18,10881.0
801.03,10854.4
802.89,10879.4
804.74,10934.8
806.59,10884.0
808.44,10933.6
810.29,10966.4
812.14,10908.2
813.99,10995.6
815.84,11110.4
817.69,11265.2
819.53,11395.4
821.38,11554.8
823.22,11661.8
825.06,11841.0
826.9,11871.4
828.75,11844.8
830.59,11837.4
832.42,11762.6
834.26,11618.2
836.1,11524.0
837.93,11520.6
839.77,11463.6
841.6,11564.0
843.44,11692.6
845.27,11888.0
847.1,12152.2
848.93,12423.2
850.76,12517.0
852.59,12478.8
854.42,12304.4
856.24,12112.2
858.07,11884.4
859.89,11743.0
861.72,11613.2
863.54,11511.0
865.36,11410.4
867.18,11327.4
869.0,11251.6
870.82,11193.0
872.64,11213.8
874.45,11230.2
876.27,11297.8
878.08,11320.4
879.9,11415.0
881.71,11445.6
883.52,11455.0
885.33,11510.8
887.14,11461.2
888.95,11635.6
890.76,11734.4
892.57,11838.0
894.37,12003.8
896.18,12126.4
897.98,12187.4
899.79,12210.6
901.59,12116.4
903.39,12058.0
905.19,11884.4
906.99,11794.8
908.79,11643.6
910.58,11546.0
912.38,11460.2
914.18,11408.0
915.97,11424.0
917.76,11442.4
919.56,11527.2
921.35,11701.2
923.14,11811.4
924.93,11991.4
926.72,12193.4
928.51,12328.4
930.29,12459.4
932.08,12682.4
933.86,12862.4
935.65,12982.4
937.43,13155.4
939.21,13255.2
940.99,13269.2
942.77,13274.0
944.55,13189.4
946.33,13048.4
948.11,12849.8
949.88,12720.4
951.66,12538.6
953.43,12501.4
955.21,12500.0
956.98,12540.8
958.75,12512.4
960.52,12468.8
962.29,12385.4
964.06,12207.8
965.82,11999.6
967.59,11831.8
969.36,11597.8
971.12,11414.2
972.88,11268.2
974.65,11086.2
976.41,10967.8
978.17,10897.2
979.93,10761.2
981.69,10719.0
983.45,10665.2
985.2,10578.6
986.96,10494.4
988.71,10503.2
990.47,10480.8
992.22,10398.0
993.97,10389.0
995.72,10436.8
997.47,10825.4
999.22,11552.2
1000.97,12853.2
1002.72,13768.4
1004.46,13539.8
1006.21,12387.8
1007.95,11257.6
1009.7,10495.8
1011.44,10118.6
1013.18,9888.0
1014.92,9802.2
1016.66,9715.6
1018.4,9628.8
1020.13,9555.4
1021.87,9522.0
1023.61,9536.2
1025.34,9627.6
1027.07,9829.0
1028.81,9993.4
1030.54,10147.6
1032.27,10167.0
1034.0,10041.4
1035.73,9906.0
1037.46,9720.0
1039.18,9698.0
1040.91,9673.6
1042.63,9606.2
1044.36,9712.4
1046.08,9746.6
1047.8,9809.6
1049.52,9844.6
1051.24,9849.8
1052.96,9835.2
1054.68,9874.6
1056.4,9815.0
1058.11,9806.0
1059.83,9716.2
1061.54,9698.2
1063.26,9652.2
1064.97,9615.8
1066.68,9534.2
1068.39,9482.0
1070.1,9482.0
1071.81,9471.8
1073.51,9470.0
1075.22,9512.6
1076.93,9500.6
1078.63,9526.0
1080.33,9536.2
1082.04,9578.4
1083.74,9550.4
1085.44,9482.2
1087.14,9434.0
1088.84,9368.4
1090.53,9328.0
1092.23,9361.2
1093.93,9362.8
1095.62,9450.8
1097.32,9443.0
1099.01,9555.2
1100.7,9605.2
1102.39,9628.0
1104.08,9648.6
1105.77,9555.6
1107.46,9531.2
1109.15,9456.4
1110.83,9378.6
1112.52,9320.2
1114.2,9224.4
1115.88,9219.2
1117.57,9265.2
1119.25,9217.2
1120.93,9321.2
1122.61,9387.4
1124.28,9509.6
1125.96,9563.0
1127.64,9506.4
1129.31,9402.8
1130.99,9185.4
1132.66,8989.6
1134.33,8712.2
1136.01,8527.4
1137.68,8359.2
1139.35,8242.2
1141.01,8152.2
1142.68,8156.0
1144.35,8165.4
1146.01,8217.0
1147.68,8302.0
1149.34,8376.0
1151.01,8511.6
1152.67,8633.4
1154.33,8730.4
1155.99,8799.8
1157.65,8850.4
1159.3,8773.6
1160.96,8792.4
1162.62,8700.0
1164.27,8650.6
1165.93,8661.8
1167.58,8720.0
1169.23,8794.2
1170.88,8870.2
1172.53,8948.6
1174.18,8983.4
1175.83,9018.2
1177.48,8961.6
1179.12,8859.4
1180.77,8822.6
1182.41,8698.8
1184.06,8585.8
1185.7,8543.0
1187.34,8454.8
1188.98,8377.4
1190.62,8356.0
1192.26,8320.6
1193.9,8327.0
1195.53,8352.6
1197.17,8409.0
1198.8,8521.4
1200.44,8666.0
1202.07,8829.0
1203.7,8993.2
1205.33,9094.4
1206.96,9113.4
1208.59,9082.6
1210.22,8952.8
1211.85,8862.0
1213.47,8635.8
1215.1,8514.0
1216.72,8418.4
1218.34,8283.4
1219.96,8158.6
1221.59,8170.8
1223.21,8102.0
1224.83,8113.8
1226.44,8142.6
1228.06,8130.8
1229.68,8194.4
1231.29,8182.0
1232.91,8249.8
1234.52,8262.8
1236.13,8378.2
1237.74,8377.2
1239.35,8434.2
1240.96,8536.0
1242.57,8595.6
1244.18,8581.2
1245.78,8683.4
1247.39,8703.2
1248.99,8681.0
1250.6,8628.0
1252.2,8668.0
1253.8,8664.0
1255.4,8625.6
1257.0,8635.4
1258.6,8638.6
1260.2,8700.8
1261.8,8714.6
1263.39,8735.0
1264.99,8804.2
1266.58,8815.8
1268.17,8835.8
1269.77,8892.2
1271.36,8853.4
1272.95,8889.8
1274.54,8852.2
1276.12,8877.8
1277.71,8837.2
1279.3,8836.2
1280.88,8829.4
1282.47,8867.4
1284.05,8848.6
1285.63,8828.8
1287.21,8874.0
1288.79,8852.0
1290.37,8876.2
1291.95,8965.4
1293.53,8927.2
1295.1,8981.0
1296.68,9027.4
1298.25,8990.4
1299.83,9080.8
1301.4,9157.4
1302.97,9173.8
1304.54,9296.4
1306.11,9287.8
1307.68,9420.8
1309.25,9430.0
1310.81,9507.6
1312.38,9566.8
1313.94,9563.4
1315.51,9576.8
1317.07,9575.0
1318.63,9596.0
1320.19,9598.6
1321.75,9546.6
1323.31,9530.2
1324.87,9445.0
1326.43,9434.4
1327.98,9359.8
1329.54,9329.4
1331.09,9318.4
1332.64,9285.2
1334.2,9273.2
1335.75,9284.4
1337.3,9265.8
1338.85,9192.8
1340.4,9193.6
1341.94,9095.0
1343.49,8994.6
1345.03,8760.6
1346.58,8574.4
1348.12,8357.4
1349.66,8121.6
1351.21,7841.2
1352.75,7639.6
1354.29,7434.0
1355.82,7275.4
1357.36,7096.2
1358.9,6986.4
1360.43,6834.2
1361.97,6752.4
1363.5,6680.2
1365.03,6592.0
1366.57,6469.8
1368.1,6429.2
1369.63,6347.8
1371.16,6252.0
1372.68,6191.8
1374.21,6144.6
1375.74,6104.0
1377.26,6083.0
1378.78,6038.4
1380.31,6039.6
1381.83,6047.8
1383.35,6068.4
1384.87,6073.6
1386.39,6095.6
1387.91,6143.4
1389.42,6179.8
1390.94,6202.4
1392.46,6233.2
1393.97,6248.2
1395.48,6295.4
1397.0,6346.8
1398.51,6357.6
1400.02,6411.4
1401.53,6429.0
1403.04,6453.8
1404.54,6473.6
1406.05,6437.2
1407.55,6482.6
1409.06,6481.4
1410.56,6519.8
1412.06,6531.8
1413.57,6490.8
1415.07,6519.2
1416.57,6525.6
1418.07,6519.6
1419.56,6526.8
1421.06,6542.2
1422.56,6509.4
1424.05,6464.2
1425.54,6456.0
1427.04,6415.4
1428.53,6387.8
1430.02,6383.4
1431.51,6424.4
1433.0,6537.6
1434.49,6677.2
1435.97,6859.4
1437.46,7038.2
1438.94,7243.8
1440.43,7468.6
1441.91,7686.4
1443.39,7860.6
1444.88,7999.2
1446.36,8188.4
1447.83,8289.0
1449.31,8290.2
1450.79,8263.2
1452.27,8137.6
1453.74,8033.4
1455.22,7821.4
1456.69,7672.0
1458.16,7479.2
1459.63,7367.4
1461.1,7258.0
1462.57,7154.0
1464.04,7021.4
1465.51,6864.2
1466.98,6689.2
1468.44,6475.8
1469.91,6293.2
1471.37,6066.6
1472.83,5912.6
1474.3,5762.4
1475.76,5574.6
1477.22,5434.2
1478.67,5264.6
1480.13,5177.4
1481.59,5094.8
1483.05,5015.6
1484.5,4939.2
1485.95,4853.2
1487.41,4826.6
1488.86,4733.2
1490.31,4713.6
1491.76,4684.6
1493.21,4650.4
1494.66,4637.6
1496.11,4581.4
1497.55,4569.8
1499.0,4554.0
1500.44,4523.6
1501.88,4499.0
1503.33,4444.8
1504.77,4436.4
1506.21,4420.2
1507.65,4428.4
1509.09,4403.6
1510.52,4358.8
1511.96,4326.0
1513.4,4305.8
1514.83,4294.2
1516.26,4285.2
1517.7,4251.6
1519.13,4235.6
1520.56,4244.8
1521.99,4222.8
1523.42,4198.4
1524.85,4216.0
1526.27,4200.0
1527.7,4138.6
1529.12,4165.2
1530.55,4152.4
1531.97,4160.6
1533.39,4156.2
1534.81,4134.8
1536.23,4115.4
1537.65,4138.4
1539.07,4143.8
1540.49,4112.0
1541.9,4138.6
1543.32,4157.2
1544.73,4179.0
1546.15,4169.0
1547.56,4160.2
1548.97,4183.6
1550.38,4191.2
1551.79,4186.0
1553.2,4182.0
1554.61,4174.2
1556.01,4173.4
1557.42,4128.2
1558.82,4110.4
1560.22,4041.0
1561.63,4026.4
1563.03,4040.6
1564.43,4036.6
1565.83,4004.2
1567.23,4017.6
1568.63,4031.0
1570.02,4040.0
1571.42,4011.8
1572.81,4042.2
1574.21,4011.6
1575.6,4023.4
1576.99,4048.2
1578.38,4034.2
1579.77,4053.4
1581.16,4091.0
1582.55,4136.4
1583.94,4214.4
1585.32,4257.0
1586.71,4234.8
1588.09,4239.6
1589.47,4225.4
1590.86,4211.4
1592.24,4201.0
1593.62,4235.8
1595.0,4263.4
1596.38,4274.6
1597.75,4359.4
1599.13,4369.2
1600.51,4457.0
1601.88,4535.4
1603.25,4599.4
1604.63,4669.4
1606.0,4735.4
1607.37,4708.8
1608.74,4702.6
1610.11,4666.2
1611.47,4687.0
1612.84,4710.4
1614.21,4739.2
1615.57,4738.2
1616.93,4759.2
1618.3,4776.8
1619.66,4759.2
1621.02,4721.0
1622.38,4728.2
1623.74,4739.2
1625.1,4741.0
1626.45,4800.8
1627.81,4803.2
1629.16,4873.6
1630.52,4911.2
1631.87,4986.0
1633.22,5024.6
1634.57,5064.0
1635.92,5165.8
1637.27,5240.8
1638.62,5284.6
1639.97,5362.0
1641.32,5433.2
1642.66,5548.6
1644.01,5656.4
1645.35,5769.6
1646.69,5844.0
1648.03,5912.4
1649.37,5992.4
1650.71,6062.2
1652.05,6101.6
1653.39,6164.8
1654.73,6133.4
1656.06,6072.6
1657.4,5998.6
1658.73,5882.4
1660.06,5759.2
1661.39,5638.0
1662.72,5493.2
1664.05,5365.0
1665.38,5218.4
1666.71,5079.4
1668.04,4956.8
1669.36,4828.2
1670.69,4741.4
1672.01,4622.4
1673.34,4508.6
1674.66,4396.6
1675.98,4300.8
1677.3,4211.0
1678.62,4128.6
1679.94,4073.2
1681.25,3948.8
1682.57,3882.6
1683.88,3811.4
1685.2,3706.8
1686.51,3633.8
1687.82,3556.8
1689.14,3451.4
1690.45,3416.2
1691.76,3302.2
1693.06,3227.8
1694.37,3174.2
1695.68,3094.8
1696.98,3047.4
1698.29,2997.2
1699.59,2920.6
1700.89,2872.6
1702.2,2868.6
1703.5,2801.2
1704.8,2791.6
1706.1,2742.8
1707.39,2753.2
1708.69,2682.0
1709.99,2670.0
1711.28,2626.6
1712.57,2615.2
1713.87,2575.8
1715.16,2548.4
1716.45,2534.8
1717.74,2514.4
1719.03,2510.4
1720.32,2461.2
1721.6,2461.0
1722.89,2455.2
1724.18,2421.0
1725.46,2395.8
1726.74,2366.2
1728.03,2354.8
1729.31,2331.2
1730.59,2349.0
1731.87,2298.4
1733.15,2278.2
1734.42,2295.0
1735.7,2281.6
1736.97,2259.8
1738.25,2253.0
1739.52,2218.0
1740.79,2228.0
1742.07,2209.8
1743.34,2225.8
1744.61,2191.2
1745.88,2184.8
1747.14,2181.0
1748.41,2163.0
1749.68,2144.2
1750.94,2147.6
1752.2,2135.0
1753.47,2124.8
1754.73,2093.2
1755.99,2099.4
1757.25,2082.0
1758.51,2081.2
1759.77,2078.6
1761.02,2083.8
1762.28,2039.2
1763.54,2059.8
1764.79,2042.0
1766.04,2027.4
1767.29,2024.2
1768.55,2005.6
1769.8,2002.4
1771.05,1993.4
1772.29,1985.8
1773.54,1960.0
1774.79,1958.4
1776.03,1943.8
1777.28,1932.0
1778.52,1915.4
1779.76,1899.8
1781.01,1919.6
1782.25,1900.6
1783.49,1905.8
1784.72,1877.2
1785.96,1877.2
1787.2,1876.4
1788.43,1871.0
1789.67,1857.4
1790.9,1846.0
1792.14,1846.6
1793.37,1815.4
1794.6,1812.8
1795.83,1838.4
1797.06,1811.4
1798.28,1803.6
1799.51,1798.8
1800.74,1787.6
1801.96,1754.4
1803.19,1766.2
1804.41,1766.4
1805.63,1736.0
1806.85,1760.8
1808.07,1737.6
1809.29,1725.0
1810.51,1732.4
1811.73,1697.8
1812.94,1719.6
1814.16,1701.0
1815.37,1702.6
1816.59,1683.0
1817.8,1700.4
1819.01,1682.8
1820.22,1668.6
1821.43,1656.2
1822.64,1664.0
1823.85,1652.4
1825.05,1646.2
1826.26,1645.0
1827.46,1632.4
1828.67,1626.6
1829.87,1601.2
1831.07,1598.4
1832.27,1594.6
1833.47,1608.4
1834.67,1595.8
1835.87,1604.4
1837.07,1573.0
1838.26,1603.6
1839.46,1552.2
1840.65,1580.4
1841.85,1571.6
1843.04,1577.0
1844.23,1546.8
1845.42,1543.6
1846.61,1536.0
1847.8,1547.0
1848.98,1541.6
1850.17,1528.6
1851.35,1535.4
1852.54,1516.0
1853.72,1523.2
1854.9,1500.4
1856.09,1511.4
1857.27,1478.0
1858.45,1490.8
1859.62,1480.0
1860.8,1489.8
1861.98,1493.2
1863.15,1483.2
1864.33,1473.0
1865.5,1477.8
1866.68,1451.8
1867.85,1446.4
1869.02,1442.0
1870.19,1439.6
1871.36,1452.0
1872.52,1432.4
1873.69,1436.6
1874.86,1429.6
1876.02,1410.8
1877.19,1391.0
1878.35,1413.4
1879.51,1410.8
1880.67,1431.2
1881.83,1404.2
1882.99,1398.0
1884.15,1393.4
1885.31,1396.2
1886.46,1377.8
1887.62,1376.2
1888.77,1365.0
1889.92,1357.2
1891.08,1369.2
1892.23,1364.6
1893.38,1359.2
