Wavenumber,Intensities
282.29,16591.4
284.39,16333.2
286.49,16129.8
288.59,16071.4
290.7,15778.8
292.79,15607.4
294.89,15340.0
296.99,15421.2
299.09,15359.4
301.18,15012.0
303.28,14962.0
305.37,14845.4
307.47,14977.8
309.56,14786.2
311.65,14578.6
313.74,14425.4
315.83,14451.0
317.92,14523.2
320.0,14517.4
322.09,14390.0
324.18,14334.2
326.26,14647.2
328.34,14349.2
330.43,14471.6
332.51,14334.6
334.59,14306.4
336.67,14350.8
338.75,14334.2
340.83,14302.2
342.9,14410.8
344.98,14311.0
347.05,14341.6
349.13,14342.8
351.2,14392.0
353.27,14439.4
355.35,14358.6
357.42,14380.2
359.49,14403.6
361.55,14610.2
363.62,14378.0
365.69,14488.8
367.75,14411.4
369.82,14471.4
371.88,14478.4
373.95,14586.8
376.01,14472.2
378.07,14510.0
380.13,14511.4
382.19,14405.2
384.25,14343.0
386.31,14479.0
388.36,14652.2
390.42,14249.6
392.47,14591.4
394.53,14436.4
396.58,14584.0
398.63,14686.2
400.68,14429.8
402.73,14424.2
404.78,14492.0
406.83,14593.0
408.87,14626.4
410.92,14638.4
412.97,14759.0
415.01,14683.4
417.05,14736.2
419.1,14696.8
421.14,14873.8
423.18,14790.2
425.22,14829.0
427.25,14898.6
429.29,14823.2
431.33,14833.0
433.36,14901.8
435.4,15065.8
437.43,14808.2
439.47,14718.0
441.5,14818.4
443.53,14515.6
445.56,14676.0
447.59,14775.8
449.62,14550.6
451.64,14602.8
453.67,14538.4
455.7,14639.0
457.72,14563.4
459.74,14547.0
461.77,14236.8
463.79,14472.2
465.81,14419.8
467.83,14330.0
469.85,14234.4
471.86,13939.8
473.88,14176.4
475.9,14145.8
477.91,14017.4
479.93,14004.8
481.94,13968.2
483.95,14010.4
485.96,13951.4
487.97,14009.6
489.98,13785.6
491.99,13724.4
494.0,13848.4
496.0,13767.4
498.01,13441.8
500.01,13267.8
502.02,13355.0
504.02,13157.6
506.02,12946.2
508.02,12818.2
510.02,12831.2
512.02,12779.6
514.02,12561.4
516.01,12712.0
518.01,12587.2
520.01,12277.0
522.0,12416.6
523.99,12275.4
525.99,12193.2
527.98,12103.6
529.97,12150.6
531.96,12041.6
533.94,11968.8
535.93,11967.2
537.92,11906.6
539.9,11865.4
541.89,12015.8
543.87,11834.2
545.85,11844.8
547.84,11820.4
549.82,11645.8
551.8,11768.4
553.78,11804.0
555.75,11700.4
557.73,11638.8
559.71,11607.6
561.68,11649.6
563.66,11505.0
565.63,11605.6
567.6,11252.4
569.57,11152.6
571.54,11314.6
573.51,11325.2
575.48,11131.8
577.45,11151.8
579.41,11164.8
581.38,11102.8
583.34,10912.8
585.31,11022.6
587.27,10893.6
589.23,10942.6
591.19,10964.8
593.15,10870.6
595.11,10890.4
597.07,10695.6
599.03,10800.6
600.98,10810.6
602.94,11039.8
604.89,10716.2
606.84,10658.0
608.8,10533.4
610.75,10440.6
612.7,10541.2
614.65,10394.4
616.6,10320.4
618.54,10295.0
620.49,10437.0
622.43,10433.6
624.38,10235.0
626.32,10082.8
628.27,10118.4
630.21,10075.4
632.15,9997.2
634.09,10140.2
636.03,10191.8
637.96,10146.4
639.9,10270.4
641.84,10138.6
643.77,10218.6
645.71,10122.4
647.64,10145.4
649.57,10033.2
651.5,10122.2
653.43,10053.4
655.36,10084.2
657.29,10033.2
659.22,10020.2
661.14,10111.2
663.07,9869.8
664.99,9997.0
666.92,9860.2
668.84,9879.8
670.76,9631.4
672.68,9740.2
674.6,9732.2
676.52,9776.8
678.44,9693.4
680.35,9601.6
682.27,9571.0
684.19,9473.2
686.1,9690.4
688.01,9615.2
689.92,9630.4
691.83,9464.6
693.74,9551.4
695.65,9610.0
697.56,9381.8
699.47,9467.8
701.38,9563.0
703.28,9383.4
705.19,9460.6
707.09,9610.6
708.99,9256.8
710.89,9503.6
712.79,9271.0
714.69,9232.8
716.59,9194.4
718.49,9122.2
720.39,9264.0
722.28,9146.6
724.18,9216.6
726.07,9207.6
727.96,9032.0
729.85,9124.0
731.74,9049.0
733.63,8988.8
735.52,8922.8
737.41,9040.4
739.3,9000.0
741.18,9151.4
743.07,9100.8
744.95,8861.0
746.84,9114.2
748.72,8948.0
750.6,8824.4
752.48,8862.6
754.36,8904.6
756.24,8942.0
758.12,8869.4
759.99,8777.2
761.87,8755.6
763.74,8906.0
765.62,8714.6
767.49,8887.0
769.36,8562.0
771.23,8887.0
773.1,8546.6
774.97,8500.2
776.84,8650.8
778.7,8476.2
780.57,8581.2
782.44,8427.6
784.3,8666.0
786.16,8674.4
788.02,8490.4
789.89,8623.8
791.75,8454.0
793.6,8518.8
795.46,8553.6
797.32,8471.6
799.18,8483.8
801.03,8526.8
802.89,8456.4
804.74,8555.0
806.59,8444.2
808.44,8570.6
810.29,8390.2
812.14,8293.0
813.99,8274.0
815.84,8235.2
817.69,8325.6
819.53,8248.0
821.38,8391.0
823.22,8459.4
825.06,8293.0
826.9,8226.4
828.75,8153.4
830.59,8125.4
832.42,8046.2
834.26,8044.0
836.1,8032.6
837.93,8189.0
839.77,7998.0
841.6,7862.8
843.44,7903.2
845.27,8018.4
847.1,8023.8
848.93,7978.8
850.76,7945.4
852.59,7846.0
854.42,7866.6
856.24,7834.4
858.07,7529.2
859.89,7656.8
861.72,7429.2
863.54,7434.2
865.36,7469.8
867.18,7256.4
869.0,7368.4
870.82,7293.2
872.64,7292.2
874.45,7215.4
876.27,7172.2
878.08,7141.8
879.9,7192.8
881.71,7073.0
883.52,7027.4
885.33,7036.6
887.14,6974.8
888.95,7099.6
890.76,6973.2
892.57,7029.0
894.37,7112.8
896.18,7044.6
897.98,7178.6
899.79,7242.6
901.59,7042.2
903.39,7098.4
905.19,6945.4
906.99,6749.0
908.79,6832.8
910.58,6791.0
912.38,6696.2
914.18,7257.4
915.97,6694.6
917.76,6633.6
919.56,6629.4
921.35,6536.0
923.14,6532.2
924.93,6586.2
926.72,6691.0
928.51,6714.6
930.29,6521.0
932.08,6875.6
933.86,6758.2
935.65,6696.0
937.43,6730.8
939.21,6568.6
940.99,6781.2
942.77,6744.8
944.55,6491.0
946.33,6638.6
948.11,6826.8
949.88,6667.4
951.66,6463.6
953.43,6641.4
955.21,6552.6
956.98,6591.2
958.75,6543.8
960.52,6403.0
962.29,6738.0
964.06,6343.0
965.82,6366.2
967.59,6252.0
969.36,6085.6
971.12,6351.4
972.88,6149.2
974.65,6144.6
976.41,6058.2
978.17,5929.4
979.93,5998.4
981.69,6096.2
983.45,5983.6
985.2,5999.6
986.96,5908.0
988.71,5957.0
990.47,5828.8
992.22,5860.0
993.97,5823.6
995.72,5875.2
997.47,5909.6
999.22,6160.0
1000.97,6293.6
1002.72,6527.0
1004.46,6436.0
1006.21,5920.0
1007.95,5893.6
1009.7,5773.6
1011.44,5728.0
1013.18,5635.4
1014.92,5716.4
1016.66,5631.8
1018.4,5608.8
1020.13,5696.2
1021.87,5564.4
1023.61,5722.0
1025.34,5660.6
1027.07,5576.2
1028.81,5664.6
1030.54,5615.6
1032.27,5449.0
1034.0,5702.6
1035.73,5513.8
1037.46,5480.6
1039.18,5704.2
1040.91,5554.0
1042.63,5465.4
1044.36,5645.4
1046.08,5604.2
1047.8,5496.6
1049.52,5573.6
1051.24,5675.8
1052.96,5588.2
1054.68,5623.2
1056.4,5507.8
1058.11,5593.6
1059.83,5668.0
1061.54,5523.6
1063.26,5788.8
1064.97,5509.8
1066.68,5607.4
1068.39,5413.6
1070.1,5410.4
1071.81,5415.0
1073.51,5339.2
1075.22,5370.4
1076.93,5301.0
1078.63,5473.2
1080.33,5580.6
1082.04,5368.4
1083.74,5372.6
1085.44,5328.4
1087.14,5397.4
1088.84,5417.4
1090.53,5319.0
1092.23,5280.6
1093.93,5181.2
1095.62,5227.0
1097.32,5291.2
1099.01,5425.8
1100.7,5261.6
1102.39,5299.6
1104.08,5302.8
1105.77,5384.0
1107.46,5232.4
1109.15,5245.8
1110.83,5289.6
1112.52,5211.2
1114.2,5315.6
1115.88,5266.2
1117.57,5258.8
1119.25,5074.2
1120.93,5179.0
1122.61,5239.4
1124.28,5360.4
1125.96,5131.6
1127.64,5202.8
1129.31,5243.0
1130.99,5126.0
1132.66,4987.6
1134.33,4995.4
1136.01,4965.0
1137.68,4862.4
1139.35,5118.2
1141.01,5291.4
1142.68,4873.6
1144.35,4962.4
1146.01,4897.2
1147.68,5072.6
1149.34,5037.8
1151.01,4999.6
1152.67,4862.2
1154.33,5091.4
1155.99,5212.8
1157.65,4969.2
1159.3,5100.0
1160.96,5026.4
1162.62,5024.8
1164.27,5054.4
1165.93,5052.0
1167.58,5008.2
1169.23,5031.6
1170.88,4885.8
1172.53,5041.4
1174.18,5058.8
1175.83,4989.8
1177.48,4981.0
1179.12,4926.2
1180.77,4765.2
1182.41,4798.2
1184.06,5005.8
1185.7,4938.2
1187.34,4805.2
1188.98,4886.0
1190.62,4897.0
1192.26,4947.2
1193.9,4844.8
1195.53,4751.6
1197.17,4870.4
1198.8,4797.0
1200.44,5012.4
1202.07,4941.2
1203.7,5031.8
1205.33,5037.8
1206.96,4908.0
1208.59,4997.2
1210.22,4907.8
1211.85,4836.0
1213.47,4702.0
1215.1,4818.8
1216.72,4836.6
1218.34,4724.8
1219.96,4723.0
1221.59,4788.4
1223.21,4860.4
1224.83,4798.6
1226.44,4529.0
1228.06,4698.4
1229.68,4678.6
1231.29,4700.6
1232.91,4687.4
1234.52,4782.2
1236.13,4725.6
1237.74,4656.6
1239.35,4588.8
1240.96,4753.4
1242.57,4604.6
1244.18,4669.4
1245.78,4752.8
1247.39,4779.0
1248.99,4645.2
1250.6,4747.8
1252.2,4767.0
1253.8,4733.8
1255.4,4730.0
1257.0,4625.2
1258.6,4892.8
1260.2,4749.8
1261.8,4658.4
1263.39,4627.6
1264.99,4610.8
1266.58,4655.0
1268.17,4697.8
1269.77,4785.6
1271.36,4716.2
1272.95,4728.6
1274.54,4768.8
1276.12,4673.6
1277.71,4520.6
1279.3,4627.6
1280.88,4667.4
1282.47,4625.4
1284.05,4722.0
1285.63,4551.6
1287.21,4609.8
1288.79,4598.8
1290.37,4642.8
1291.95,4679.4
1293.53,4521.0
1295.1,4624.4
1296.68,4550.0
1298.25,4597.4
1299.83,4718.0
1301.4,4547.2
1302.97,4808.2
1304.54,4531.4
1306.11,4682.4
1307.68,4694.6
1309.25,4492.0
1310.81,4827.4
1312.38,4619.4
1313.94,4783.4
1315.51,4510.2
1317.07,4604.6
1318.63,4687.6
1320.19,4708.2
1321.75,4695.8
1323.31,4664.8
1324.87,4615.4
1326.43,4530.0
1327.98,4568.8
1329.54,4508.2
1331.09,4680.0
1332.64,4570.0
1334.2,4537.8
1335.75,4587.0
1337.3,4453.0
1338.85,4551.2
1340.4,4495.4
1341.94,4405.0
1343.49,4430.6
1345.03,4322.0
1346.58,4223.8
1348.12,4252.2
1349.66,4016.4
1351.21,4212.2
1352.75,4075.2
1354.29,4049.6
1355.82,3919.2
1357.36,3970.8
1358.9,4067.4
1360.43,3922.0
1361.97,4026.2
1363.5,3857.8
1365.03,3901.6
1366.57,3983.0
1368.1,3930.4
1369.63,3722.8
1371.16,3842.2
1372.68,3788.6
1374.21,3747.6
1375.74,3652.0
1377.26,3773.8
1378.78,3730.0
1380.31,3871.4
1381.83,3787.0
1383.35,3915.4
1384.87,3827.2
1386.39,3736.0
1387.91,3835.6
1389.42,3767.4
1390.94,3762.2
1392.46,3724.2
1393.97,3664.8
1395.48,3654.2
1397.0,3814.6
1398.51,3777.2
1400.02,3695.0
1401.53,3668.6
1403.04,3891.6
1404.54,3629.6
1406.05,3657.8
1407.55,3738.6
1409.06,3745.8
1410.56,3650.2
1412.06,3734.2
1413.57,3695.0
1415.07,3574.6
1416.57,3654.6
1418.07,3802.0
1419.56,3803.8
1421.06,3750.6
1422.56,3720.8
1424.05,3617.0
1425.54,3657.8
1427.04,3688.4
1428.53,3528.0
1430.02,3825.2
1431.51,3700.8
1433.0,3698.2
1434.49,3697.4
1435.97,3727.4
1437.46,3765.0
1438.94,3795.4
1440.43,3869.6
1441.91,3814.2
1443.39,3828.2
1444.88,3846.0
1446.36,3881.8
1447.83,3935.4
1449.31,3866.0
1450.79,3871.8
1452.27,4051.4
1453.74,3794.0
1455.22,3951.0
1456.69,3689.6
1458.16,3731.0
1459.63,3686.6
1461.1,3744.4
1462.57,3752.0
1464.04,3842.4
1465.51,3748.4
1466.98,3588.2
1468.44,3553.6
1469.91,3653.4
1471.37,3503.4
1472.83,3501.4
1474.3,3532.0
1475.76,3440.6
1477.22,3533.0
1478.67,3327.0
1480.13,3368.6
1481.59,3378.6
1483.05,3311.4
1484.5,3414.2
1485.95,3313.2
1487.41,3292.0
1488.86,3496.2
1490.31,3164.4
1491.76,3307.2
1493.21,3381.4
1494.66,3174.2
1496.11,3125.6
1497.55,3199.4
1499.0,3125.4
1500.44,3041.8
1501.88,3031.4
1503.33,3154.0
1504.77,3269.2
1506.21,3213.2
1507.65,3279.4
1509.09,3166.4
1510.52,3149.2
1511.96,3223.8
1513.4,3243.2
1514.83,3230.2
1516.26,3259.2
1517.7,3225.4
1519.13,3142.0
1520.56,3170.4
1521.99,3165.0
1523.42,3236.2
1524.85,3174.4
1526.27,3349.4
1527.7,3161.8
1529.12,3107.2
1530.55,3301.0
1531.97,3234.6
1533.39,3303.0
1534.81,3149.8
1536.23,3098.8
1537.65,3262.8
1539.07,3214.0
1540.49,3171.2
1541.9,3222.2
1543.32,3393.2
1544.73,3245.6
1546.15,3276.6
1547.56,3233.6
1548.97,3309.4
1550.38,3414.2
1551.79,3420.8
1553.2,3352.6
1554.61,3449.8
1556.01,3348.0
1557.42,3392.0
1558.82,3318.6
1560.22,3309.0
1561.63,3275.4
1563.03,3315.4
1564.43,3285.6
1565.83,3284.8
1567.23,3508.4
1568.63,3200.8
1570.02,3368.2
1571.42,3439.8
1572.81,3429.2
1574.21,3508.4
1575.6,3614.8
1576.99,3549.6
1578.38,3500.2
1579.77,3505.2
1581.16,3677.0
1582.55,3723.2
1583.94,3482.0
1585.32,3601.6
1586.71,3643.6
1588.09,3523.6
1589.47,3895.0
1590.86,3689.2
1592.24,3770.6
1593.62,3787.8
1595.0,3828.0
1596.38,3708.0
1597.75,4258.4
1599.13,3908.4
1600.51,3862.8
1601.88,4089.8
1603.25,4040.6
1604.63,4079.8
1606.0,3919.0
1607.37,3998.0
1608.74,4097.4
1610.11,4144.0
1611.47,4125.6
1612.84,4311.2
1614.21,4320.0
1615.57,4195.4
1616.93,4165.8
1618.3,4446.8
1619.66,4270.8
1621.02,4111.0
1622.38,4250.8
1623.74,4362.6
1625.1,4418.0
1626.45,4250.4
1627.81,4358.4
1629.16,4202.6
1630.52,4367.6
1631.87,4308.6
1633.22,4380.0
1634.57,4458.0
1635.92,4425.6
1637.27,4530.8
1638.62,4625.4
1639.97,4466.8
1641.32,4560.0
1642.66,4523.0
1644.01,4368.0
1645.35,4545.4
1646.69,4360.6
1648.03,4474.2
1649.37,4529.2
1650.71,4517.8
1652.05,4572.0
1653.39,4545.8
1654.73,4490.0
1656.06,4389.0
1657.4,4373.0
1658.73,4229.2
1660.06,4355.0
1661.39,4174.0
1662.72,4300.2
1664.05,4128.0
1665.38,4172.8
1666.71,3972.2
1668.04,3735.2
1669.36,3811.4
1670.69,3949.4
1672.01,3788.6
1673.34,3763.4
1674.66,3658.4
1675.98,3563.8
1677.3,3704.4
1678.62,3416.2
1679.94,3471.0
1681.25,3412.4
1682.57,3363.2
1683.88,3395.0
1685.2,3150.8
1686.51,3281.6
1687.82,3205.2
1689.14,2932.4
1690.45,3224.4
1691.76,3025.8
1693.06,3025.2
1694.37,2997.2
1695.68,2861.0
1696.98,2964.0
1698.29,3082.4
1699.59,2792.2
1700.89,2741.2
1702.2,2726.8
1703.5,2762.4
1704.8,2595.0
1706.1,2664.6
1707.39,2622.6
1708.69,2678.0
1709.99,2373.2
1711.28,2479.4
1712.57,2482.8
1713.87,2582.0
1715.16,2394.8
1716.45,2279.0
1717.74,2301.2
1719.03,2426.8
1720.32,2510.4
1721.6,2285.6
1722.89,2436.0
1724.18,2174.8
1725.46,2136.8
1726.74,2246.0
1728.03,2270.6
1729.31,2138.4
1730.59,2274.4
1731.87,2146.0
1733.15,2102.8
1734.42,2032.2
1735.7,2063.6
1736.97,2074.2
1738.25,2118.0
1739.52,2020.0
1740.79,2067.8
1742.07,2040.8
1743.34,2048.0
1744.61,1951.4
1745.88,1961.6
1747.14,1976.0
1748.41,1993.4
1749.68,1970.6
1750.94,2020.6
1752.2,1908.0
1753.47,1955.4
1754.73,1789.2
1755.99,1828.4
1757.25,1839.4
1758.51,1808.6
1759.77,1963.8
1761.02,1793.6
1762.28,1992.0
1763.54,1887.6
1764.79,1907.6
1766.04,1841.6
1767.29,1747.4
1768.55,1845.4
1769.8,1795.8
1771.05,1935.6
1772.29,1692.6
1773.54,1756.4
1774.79,1779.0
1776.03,1862.6
1777.28,1866.0
1778.52,1796.4
1779.76,1618.2
1781.01,1838.6
1782.25,1658.4
1783.49,1626.8
1784.72,1750.6
1785.96,1718.4
1787.2,1703.8
1788.43,1596.4
1789.67,1816.6
1790.9,1725.4
1792.14,1713.0
1793.37,1819.4
1794.6,1770.8
1795.83,1733.8
1797.06,1608.2
1798.28,1594.6
1799.51,1645.4
1800.74,1680.0
1801.96,1602.6
1803.19,1640.8
1804.41,1607.8
1805.63,1829.2
1806.85,1755.6
1808.07,1683.6
1809.29,1679.0
1810.51,1640.6
1811.73,1593.4
1812.94,1382.6
1814.16,1618.8
1815.37,1499.0
1816.59,1535.4
1817.8,1615.4
1819.01,1647.0
1820.22,1549.0
1821.43,1607.4
1822.64,1630.6
1823.85,1533.2
1825.05,1474.0
1826.26,1584.6
1827.46,1574.0
1828.67,1465.0
1829.87,1504.6
1831.07,1502.8
1832.27,1497.2
1833.47,1505.4
1834.67,1572.6
1835.87,1464.8
1837.07,1504.0
1838.26,1604.6
1839.46,1657.6
1840.65,1567.4
1841.85,1521.8
1843.04,1600.4
1844.23,1687.4
1845.42,1514.2
1846.61,1558.6
1847.8,1568.0
1848.98,1513.6
1850.17,1412.0
1851.35,1619.6
1852.54,1483.0
1853.72,1549.0
1854.9,1509.4
1856.09,1600.0
1857.27,1575.2
1858.45,1418.4
1859.62,1472.2
1860.8,1544.8
1861.98,1704.0
1863.15,1466.8
1864.33,1509.6
1865.5,1536.2
1866.68,1388.2
1867.85,1452.4
1869.02,1371.4
1870.19,1678.8
1871.36,1429.8
1872.52,1413.4
1873.69,1383.4
1874.86,1379.6
1876.02,1478.0
1877.19,1359.6
1878.35,1327.8
1879.51,1407.2
1880.67,1497.4
1881.83,1428.4
1882.99,1468.0
1884.15,1311.4
1885.31,1387.4
1886.46,1375.8
1887.62,1458.8
1888.77,1309.8
1889.92,1209.8
1891.08,1241.4
1892.23,1581.8
1893.38,1313.8
