Wavenumber,Intensities
282.29,3408.4
284.39,3345.53
286.49,3204.0
288.59,3464.2
290.7,3234.07
292.79,3303.4
294.89,3164.6
296.99,3550.6
299.09,3638.07
301.18,3285.73
303.28,3515.67
305.37,3490.47
307.47,3785.07
309.56,3708.8
311.65,3475.4
313.74,3297.93
315.83,3465.4
317.92,3610.27
320.0,3681.73
322.09,3618.53
324.18,3468.67
326.26,3959.6
328.34,3568.4
330.43,3853.4
332.51,3658.87
334.59,3562.13
336.67,3674.73
338.75,3674.2
340.83,3659.6
342.9,3831.6
344.98,3630.6
347.05,3668.53
349.13,3808.93
351.2,3909.8
353.27,3951.4
355.35,3844.73
357.42,3871.6
359.49,3900.13
361.55,4262.6
363.62,3868.6
365.69,4093.53
367.75,3968.87
369.82,4117.47
371.88,4123.2
373.95,4312.93
376.01,4092.07
378.07,4179.6
380.13,4177.4
382.19,3973.13
384.25,3867.6
386.31,4140.6
388.36,4402.73
390.42,3752.13
392.47,4354.87
394.53,4072.93
396.58,4240.47
398.63,4367.33
400.68,3895.2
402.73,3855.4
404.78,3941.67
406.83,4118.67
408.87,4097.0
410.92,4009.33
412.97,4245.0
415.01,4076.2
417.05,4189.33
419.1,3938.4
421.14,4245.0
423.18,4199.67
425.22,4170.6
427.25,4249.27
429.29,4150.13
431.33,4155.0
433.36,4267.8
435.4,4469.4
437.43,4273.87
439.47,4038.87
441.5,4266.0
443.53,3838.27
445.56,4120.53
447.59,4356.0
449.62,3915.4
451.64,4130.73
453.67,4120.53
455.7,4294.13
457.72,4181.53
459.74,4211.87
461.77,3761.13
463.79,4235.87
465.81,4333.0
467.83,4053.93
469.85,3996.0
471.86,3617.4
473.88,4048.6
475.9,4133.13
477.91,3964.67
479.93,3877.67
481.94,3921.13
483.95,4079.4
485.96,4006.8
487.97,4103.0
489.98,3777.73
491.99,3740.93
494.0,4058.33
496.0,3955.13
498.01,3491.8
500.01,3269.47
502.02,3455.2
504.02,3260.27
506.02,2939.33
508.02,2808.2
510.02,2973.53
512.02,2897.2
514.02,2706.47
516.01,3013.53
518.01,2921.6
520.01,2415.27
522.0,2747.47
523.99,2491.0
525.99,2368.33
527.98,2337.0
529.97,2473.93
531.96,2255.93
533.94,2131.33
535.93,2256.73
537.92,2119.67
539.9,2091.47
541.89,2338.33
543.87,2081.87
545.85,2162.6
547.84,2161.67
549.82,1898.47
551.8,2165.6
553.78,2201.53
555.75,2118.67
557.73,2084.87
559.71,2020.8
561.68,2216.2
563.66,2095.73
565.63,2341.67
567.6,1816.2
569.57,1713.93
571.54,2039.4
573.51,2099.67
575.48,1927.53
577.45,2079.53
579.41,2103.07
581.38,2011.4
583.34,1814.4
585.31,2038.73
587.27,1929.13
589.23,2081.53
591.19,2167.0
593.15,2097.13
595.11,2141.73
597.07,1988.27
599.03,2183.87
600.98,2210.0
602.94,2666.6
604.89,2181.0
606.84,2183.27
608.8,2114.73
610.75,2028.73
612.7,2258.53
614.65,2030.87
616.6,1935.53
618.54,1885.07
620.49,2107.07
622.43,2068.8
624.38,1889.13
626.32,1656.67
628.27,1851.0
630.21,1817.47
632.15,1668.87
634.09,1907.0
636.03,2036.27
637.96,1982.6
639.9,2109.67
641.84,1926.13
643.77,1888.73
645.71,1839.87
647.64,1969.13
649.57,1733.93
651.5,1975.4
653.43,1845.87
655.36,1955.67
657.29,1888.13
659.22,1851.13
661.14,2056.27
663.07,1697.73
664.99,1908.8
666.92,1805.87
668.84,1896.93
670.76,1593.07
672.68,1713.2
674.6,1756.8
676.52,1812.93
678.44,1830.53
680.35,1757.87
682.27,1701.0
684.19,1555.13
686.1,2016.33
688.01,1859.6
689.92,1874.13
691.83,1726.4
693.74,1862.33
695.65,1955.93
697.56,1640.2
699.47,1865.13
701.38,2047.27
703.28,1744.47
705.19,2011.33
707.09,2326.67
708.99,1731.0
710.89,2245.2
712.79,1830.07
714.69,1751.07
716.59,1716.4
718.49,1651.27
720.39,1916.33
722.28,1788.2
724.18,1903.87
726.07,1927.47
727.96,1698.6
729.85,1884.8
731.74,1738.27
733.63,1618.13
735.52,1588.87
737.41,1818.4
739.3,1784.33
741.18,2015.87
743.07,1884.13
744.95,1537.8
746.84,1949.93
748.72,1713.53
750.6,1561.8
752.48,1626.2
754.36,1749.27
756.24,1935.67
758.12,1840.0
759.99,1787.6
761.87,1825.0
763.74,2115.73
765.62,1923.53
767.49,2163.8
769.36,1767.93
771.23,2354.4
773.1,1847.87
774.97,1833.47
776.84,2091.8
778.7,1798.67
780.57,1995.53
782.44,1837.47
784.3,2272.4
786.16,2266.67
788.02,1987.13
789.89,2221.8
791.75,1954.4
793.6,2071.87
795.46,2066.4
797.32,2058.47
799.18,2120.2
801.03,2097.27
802.89,2091.53
804.74,2254.0
806.59,2034.87
808.44,2344.93
810.29,2152.6
812.14,2009.4
813.99,2056.33
815.84,1972.07
817.69,2116.53
819.53,2066.33
821.38,2284.4
823.22,2396.2
825.06,2080.6
826.9,1991.53
828.75,1942.6
830.59,2021.53
832.42,1852.93
834.26,1940.8
836.1,2031.0
837.93,2286.33
839.77,2064.6
841.6,1817.73
843.44,1884.6
845.27,2035.8
847.1,1996.47
848.93,1905.13
850.76,1927.4
852.59,1721.73
854.42,1943.53
856.24,1943.07
858.07,1604.53
859.89,1782.33
861.72,1587.93
863.54,1673.4
865.36,1802.67
867.18,1498.47
869.0,1818.53
870.82,1719.33
872.64,1759.67
874.45,1740.8
876.27,1697.73
878.08,1722.0
879.9,1785.67
881.71,1619.07
883.52,1530.4
885.33,1565.07
887.14,1523.0
888.95,1748.27
890.76,1492.33
892.57,1636.73
894.37,1691.8
896.18,1606.4
897.98,1923.07
899.79,2062.0
901.59,1745.87
903.39,1883.0
905.19,1777.13
906.99,1471.07
908.79,1678.27
910.58,1700.6
912.38,1607.07
914.18,2709.13
915.97,1729.53
917.76,1668.8
919.56,1621.13
921.35,1516.47
923.14,1488.07
924.93,1540.87
926.72,1705.13
928.51,1725.93
930.29,1462.33
932.08,1998.67
933.86,1689.47
935.65,1530.53
937.43,1684.67
939.21,1394.27
940.99,1703.2
942.77,1677.87
944.55,1326.93
946.33,1603.0
948.11,1938.53
949.88,1778.2
951.66,1494.13
953.43,1775.47
955.21,1653.6
956.98,1708.73
958.75,1641.87
960.52,1488.2
962.29,2122.53
964.06,1477.07
965.82,1593.6
967.59,1496.47
969.36,1326.27
971.12,1864.07
972.88,1509.2
974.65,1621.07
976.41,1583.07
978.17,1368.8
979.93,1574.0
981.69,1730.87
983.45,1623.2
985.2,1705.8
986.96,1616.53
988.71,1732.27
990.47,1517.6
992.22,1549.13
993.97,1600.33
995.72,1627.2
997.47,1617.33
999.22,1840.33
1000.97,1643.73
1002.72,1837.6
1004.46,1876.73
1006.21,1242.6
1007.95,1609.8
1009.7,1590.6
1011.44,1646.07
1013.18,1601.2
1014.92,1723.67
1016.66,1615.8
1018.4,1649.87
1020.13,1845.4
1021.87,1637.4
1023.61,1973.0
1025.34,1827.93
1027.07,1672.87
1028.81,1709.13
1030.54,1710.47
1032.27,1354.53
1034.0,1894.8
1035.73,1639.87
1037.46,1587.67
1039.18,1990.2
1040.91,1728.8
1042.63,1621.0
1044.36,1909.8
1046.08,1783.33
1047.8,1647.33
1049.52,1779.07
1051.24,1904.53
1052.96,1757.67
1054.68,1812.8
1056.4,1659.93
1058.11,1792.8
1059.83,1962.87
1061.54,1689.27
1063.26,2236.87
1064.97,1727.8
1066.68,2023.13
1068.39,1658.2
1070.1,1698.53
1071.81,1737.93
1073.51,1586.47
1075.22,1633.6
1076.93,1552.4
1078.63,1830.07
1080.33,2041.67
1082.04,1724.6
1083.74,1713.87
1085.44,1643.47
1087.14,1811.87
1088.84,1815.8
1090.53,1714.87
1092.23,1639.8
1093.93,1461.6
1095.62,1545.8
1097.32,1649.73
1099.01,1826.07
1100.7,1546.13
1102.39,1635.6
1104.08,1703.73
1105.77,1843.27
1107.46,1593.0
1109.15,1579.13
1110.83,1701.67
1112.52,1639.93
1114.2,1806.27
1115.88,1776.67
1117.57,1675.07
1119.25,1414.0
1120.93,1595.2
1122.61,1697.53
1124.28,1901.4
1125.96,1529.87
1127.64,1668.73
1129.31,1761.8
1130.99,1611.13
1132.66,1473.07
1134.33,1529.67
1136.01,1561.2
1137.68,1439.27
1139.35,1947.13
1141.01,2302.87
1142.68,1490.47
1144.35,1732.07
1146.01,1574.67
1147.68,1840.87
1149.34,1749.67
1151.01,1686.27
1152.67,1413.47
1154.33,1771.4
1155.99,1951.53
1157.65,1515.67
1159.3,1752.47
1160.96,1668.53
1162.62,1664.27
1164.27,1754.67
1165.93,1746.8
1167.58,1699.27
1169.23,1732.8
1170.88,1415.47
1172.53,1714.27
1174.18,1766.47
1175.83,1594.33
1177.48,1642.13
1179.12,1546.87
1180.77,1333.07
1182.41,1396.4
1184.06,1792.4
1185.7,1776.67
1187.34,1534.87
1188.98,1718.87
1190.62,1778.4
1192.26,1786.2
1193.9,1635.8
1195.53,1496.53
1197.17,1621.73
1198.8,1498.8
1200.44,1818.27
1202.07,1713.73
1203.7,1748.47
1205.33,1826.4
1206.96,1550.73
1208.59,1736.4
1210.22,1615.2
1211.85,1517.27
1213.47,1355.2
1215.1,1614.2
1216.72,1691.53
1218.34,1579.67
1219.96,1551.87
1221.59,1687.4
1223.21,1783.13
1224.83,1748.67
1226.44,1286.73
1228.06,1606.93
1229.68,1588.6
1231.29,1624.73
1232.91,1597.73
1234.52,1810.33
1236.13,1667.2
1237.74,1529.87
1239.35,1412.47
1240.96,1699.67
1242.57,1396.47
1244.18,1595.4
1245.78,1667.47
1247.39,1707.13
1248.99,1460.07
1250.6,1646.4
1252.2,1725.67
1253.8,1633.4
1255.4,1666.53
1257.0,1530.0
1258.6,1906.53
1260.2,1700.27
1261.8,1559.0
1263.39,1455.67
1264.99,1436.47
1266.58,1492.33
1268.17,1612.27
1269.77,1688.2
1271.36,1628.0
1272.95,1648.2
1274.54,1765.33
1276.12,1625.47
1277.71,1370.07
1279.3,1505.0
1280.88,1606.73
1282.47,1564.0
1284.05,1751.6
1285.63,1454.4
1287.21,1575.6
1288.79,1543.33
1290.37,1632.87
1291.95,1712.73
1293.53,1404.0
1295.1,1641.73
1296.68,1471.2
1298.25,1576.27
1299.83,1794.07
1301.4,1468.27
1302.97,1889.13
1304.54,1411.53
1306.11,1692.8
1307.68,1647.53
1309.25,1288.73
1310.81,1914.93
1312.38,1490.07
1313.94,1796.07
1315.51,1313.33
1317.07,1543.47
1318.63,1748.33
1320.19,1712.93
1321.75,1695.6
1323.31,1674.73
1324.87,1670.93
1326.43,1504.53
1327.98,1635.47
1329.54,1533.0
1331.09,1907.67
1332.64,1701.07
1334.2,1646.73
1335.75,1736.0
1337.3,1558.27
1338.85,1728.73
1340.4,1610.2
1341.94,1522.0
1343.49,1634.13
1345.03,1542.87
1346.58,1386.27
1348.12,1564.87
1349.66,1240.4
1351.21,1719.73
1352.75,1464.4
1354.29,1525.47
1355.82,1364.87
1357.36,1569.47
1358.9,1684.07
1360.43,1504.2
1361.97,1775.47
1363.5,1531.53
1365.03,1559.2
1366.57,1780.27
1368.1,1740.53
1369.63,1380.47
1371.16,1607.13
1372.68,1571.27
1374.21,1523.13
1375.74,1306.4
1377.26,1578.53
1378.78,1483.67
1380.31,1741.67
1381.83,1657.0
1383.35,1926.33
1384.87,1677.93
1386.39,1543.33
1387.91,1735.27
1389.42,1579.27
1390.94,1552.67
1392.46,1582.13
1393.97,1435.93
1395.48,1422.07
1397.0,1684.13
1398.51,1666.67
1400.02,1511.6
1401.53,1378.0
1403.04,1848.0
1404.54,1373.87
1406.05,1411.6
1407.55,1557.93
1409.06,1608.53
1410.56,1436.47
1412.06,1552.6
1413.57,1509.07
1415.07,1295.4
1416.57,1428.67
1418.07,1745.4
1419.56,1705.13
1421.06,1620.6
1422.56,1622.87
1424.05,1485.0
1425.54,1531.67
1427.04,1563.47
1428.53,1313.47
1430.02,1869.07
1431.51,1667.87
1433.0,1584.87
1434.49,1531.33
1435.97,1603.2
1437.46,1564.73
1438.94,1527.8
1440.43,1705.67
1441.91,1516.07
1443.39,1486.6
1444.88,1511.47
1446.36,1509.47
1447.83,1592.07
1449.31,1431.73
1450.79,1530.53
1452.27,1891.4
1453.74,1449.73
1455.22,1763.67
1456.69,1366.87
1458.16,1522.47
1459.63,1400.2
1461.1,1571.13
1462.57,1629.87
1464.04,1830.4
1465.51,1704.8
1466.98,1434.0
1468.44,1520.2
1469.91,1728.93
1471.37,1490.87
1472.83,1513.27
1474.3,1657.8
1475.76,1558.6
1477.22,1780.0
1478.67,1494.93
1480.13,1548.0
1481.59,1565.07
1483.05,1510.93
1484.5,1717.13
1485.95,1567.87
1487.41,1546.13
1488.86,1938.53
1490.31,1329.07
1491.76,1539.8
1493.21,1730.6
1494.66,1378.4
1496.11,1330.4
1497.55,1442.4
1499.0,1303.47
1500.44,1173.13
1501.88,1198.4
1503.33,1398.33
1504.77,1630.2
1506.21,1562.0
1507.65,1645.33
1509.09,1435.33
1510.52,1384.0
1511.96,1529.53
1513.4,1598.8
1514.83,1535.07
1516.26,1659.07
1517.7,1555.53
1519.13,1411.2
1520.56,1469.67
1521.99,1430.13
1523.42,1577.6
1524.85,1464.13
1526.27,1755.27
1527.7,1462.2
1529.12,1370.4
1530.55,1652.4
1531.97,1605.0
1533.39,1676.4
1534.81,1392.67
1536.23,1373.0
1537.65,1607.53
1539.07,1483.2
1540.49,1394.33
1541.9,1480.6
1543.32,1800.8
1544.73,1547.47
1546.15,1546.87
1547.56,1504.73
1548.97,1589.8
1550.38,1766.0
1551.79,1760.47
1553.2,1637.47
1554.61,1829.4
1556.01,1633.67
1557.42,1701.67
1558.82,1534.07
1560.22,1561.93
1561.63,1423.8
1563.03,1528.2
1564.43,1418.13
1565.83,1421.87
1567.23,1813.2
1568.63,1238.33
1570.02,1533.93
1571.42,1617.93
1572.81,1559.33
1574.21,1640.87
1575.6,1841.33
1576.99,1726.87
1578.38,1629.27
1579.77,1511.93
1581.16,1824.6
1582.55,1877.4
1583.94,1379.53
1585.32,1610.53
1586.71,1560.73
1588.09,1357.67
1589.47,1952.13
1590.86,1551.53
1592.24,1712.2
1593.62,1642.6
1595.0,1747.87
1596.38,1429.33
1597.75,2333.73
1599.13,1621.93
1600.51,1483.33
1601.88,1845.8
1603.25,1762.2
1604.63,1678.13
1606.0,1353.6
1607.37,1420.33
1608.74,1577.93
1610.11,1623.93
1611.47,1537.27
1612.84,1829.8
1614.21,1818.07
1615.57,1516.2
1616.93,1420.13
1618.3,1882.8
1619.66,1605.53
1621.02,1328.93
1622.38,1518.0
1623.74,1708.8
1625.1,1757.87
1626.45,1386.47
1627.81,1547.07
1629.16,1283.73
1630.52,1552.93
1631.87,1378.13
1633.22,1474.73
1634.57,1605.13
1635.92,1470.8
1637.27,1660.87
1638.62,1862.93
1639.97,1584.4
1641.32,1684.27
1642.66,1594.4
1644.01,1331.27
1645.35,1647.33
1646.69,1335.93
1648.03,1545.73
1649.37,1624.93
1650.71,1664.73
1652.05,1762.93
1653.39,1697.93
1654.73,1695.53
1656.06,1550.07
1657.4,1562.2
1658.73,1413.4
1660.06,1729.67
1661.39,1505.73
1662.72,1808.07
1664.05,1530.67
1665.38,1743.6
1666.71,1525.2
1668.04,1204.33
1669.36,1383.4
1670.69,1766.47
1672.01,1507.93
1673.34,1559.0
1674.66,1495.6
1675.98,1438.87
1677.3,1733.6
1678.62,1343.13
1679.94,1529.07
1681.25,1515.93
1682.57,1491.87
1683.88,1652.27
1685.2,1327.07
1686.51,1613.8
1687.82,1558.07
1689.14,1171.53
1690.45,1789.07
1691.76,1474.53
1693.06,1563.53
1694.37,1568.0
1695.68,1424.67
1696.98,1681.6
1698.29,1904.67
1699.59,1513.87
1700.89,1455.47
1702.2,1494.13
1703.5,1605.8
1704.8,1359.87
1706.1,1503.8
1707.39,1521.2
1708.69,1676.13
1709.99,1220.93
1711.28,1466.27
1712.57,1493.33
1713.87,1688.73
1715.16,1424.33
1716.45,1291.87
1717.74,1334.87
1719.03,1617.53
1720.32,1798.47
1721.6,1453.6
1722.89,1728.73
1724.18,1361.8
1725.46,1325.73
1726.74,1540.0
1728.03,1629.07
1729.31,1406.4
1730.59,1650.87
1731.87,1483.2
1733.15,1436.47
1734.42,1301.33
1735.7,1437.2
1736.97,1488.87
1738.25,1573.47
1739.52,1415.87
1740.79,1524.73
1742.07,1487.47
1743.34,1570.6
1744.61,1422.4
1745.88,1415.93
1747.14,1488.47
1748.41,1500.93
1749.68,1511.0
1750.94,1649.0
1752.2,1456.07
1753.47,1540.13
1754.73,1226.13
1755.99,1338.67
1757.25,1408.27
1758.51,1349.6
1759.77,1623.93
1761.02,1367.93
1762.28,1708.27
1763.54,1517.27
1764.79,1599.0
1766.04,1489.07
1767.29,1378.27
1768.55,1512.53
1769.8,1446.8
1771.05,1714.07
1772.29,1321.0
1773.54,1434.07
1774.79,1495.4
1776.03,1636.6
1777.28,1635.33
1778.52,1572.07
1779.76,1257.73
1781.01,1614.8
1782.25,1340.67
1783.49,1276.67
1784.72,1568.2
1785.96,1515.87
1787.2,1502.53
1788.43,1308.73
1789.67,1723.6
1790.9,1514.33
1792.14,1516.4
1793.37,1735.4
1794.6,1666.93
1795.83,1573.67
1797.06,1395.47
1798.28,1394.87
1799.51,1492.33
1800.74,1539.0
1801.96,1428.0
1803.19,1486.87
1804.41,1410.47
1805.63,1842.67
1806.85,1704.67
1808.07,1569.27
1809.29,1634.8
1810.51,1548.73
1811.73,1460.47
1812.94,1103.6
1814.16,1495.8
1815.37,1320.27
1816.59,1411.27
1817.8,1530.73
1819.01,1567.53
1820.22,1393.93
1821.43,1554.53
1822.64,1550.73
1823.85,1408.0
1825.05,1305.73
1826.26,1501.73
1827.46,1504.27
1828.67,1331.07
1829.87,1390.53
1831.07,1416.0
1832.27,1408.6
1833.47,1394.93
1834.67,1544.13
1835.87,1346.93
1837.07,1451.27
1838.26,1581.13
1839.46,1745.47
1840.65,1544.33
1841.85,1479.47
1843.04,1586.87
1844.23,1804.0
1845.42,1494.33
1846.61,1566.4
1847.8,1598.93
1848.98,1489.47
1850.17,1341.6
1851.35,1634.6
1852.54,1450.0
1853.72,1557.87
1854.9,1502.47
1856.09,1712.6
1857.27,1609.53
1858.45,1345.2
1859.62,1440.0
1860.8,1573.87
1861.98,1835.53
1863.15,1469.07
1864.33,1506.53
1865.5,1584.8
1866.68,1319.8
1867.85,1471.13
1869.02,1311.27
1870.19,1842.6
1871.36,1390.07
1872.52,1395.2
1873.69,1328.67
1874.86,1376.0
1876.02,1510.73
1877.19,1339.2
1878.35,1273.6
1879.51,1402.0
1880.67,1542.07
1881.83,1412.47
1882.99,1505.27
1884.15,1245.67
1885.31,1347.87
1886.46,1374.07
1887.62,1496.33
1888.77,1225.13
1889.92,1106.93
1891.08,1130.6
1892.23,1740.67
1893.38,1235.33
